#Date: 22-Nov-2017 01:07:48
#
#Memory Allocation:
#	Parameter memory: 276 bytes. p -> 0xb6fbc000
#	Lookup table memory: 2000 bytes. l -> 0xb6fbb000
#	Data memory: 1200 bytes. s -> 0xb6fba000
#
#Parameters:
#	Frq = 1000 (Hz)
#
#Filter Coefficients (N = 1):
#	b[0] : 0.01850891	a[0] : 1.00000000
#	b[1] : 0.01850891	a[1] : -0.96299744
#
# frame	emg_raw
26820	797.884
26821	826.019
26822	787.773
26823	818.985
26824	822.942
26825	833.053
26826	853.714
26827	806.677
26828	825.140
26829	805.358
26830	801.401
26831	830.855
26832	799.643
26833	833.053
26834	815.908
26835	832.174
26836	837.009
26837	797.884
26838	827.778
26839	787.773
26840	808.875
26841	809.314
26842	787.334
26843	815.469
26844	787.773
26845	809.754
26846	817.667
26847	787.334
26848	815.469
26849	771.508
26850	800.082
26851	815.908
26852	801.401
26853	836.570
26854	773.266
26855	834.811
26856	799.643
26857	836.570
26858	844.043
26859	843.603
26860	860.748
26861	808.435
26862	833.053
26863	808.875
26864	808.435
26865	821.183
26866	780.300
26867	811.952
26868	801.841
26869	818.985
26870	827.338
26871	787.334
26872	821.623
26873	787.773
26874	808.875
26875	817.667
26876	787.334
26877	815.469
26878	773.706
26879	793.488
26880	801.841
26881	775.025
26882	807.556
26883	780.740
26884	829.976
26885	847.560
26886	836.570
26887	845.801
26888	798.324
26889	832.174
26890	833.492
26891	822.502
26892	839.207
26893	785.575
26894	810.193
26895	801.841
26896	806.677
26897	822.063
26898	778.981
26899	801.401
26900	801.841
26901	815.469
26902	837.009
26903	789.971
26904	811.073
26905	787.773
26906	804.918
26907	833.492
26908	801.401
26909	833.053
26910	808.875
26911	822.063
26912	819.425
26913	780.300
26914	816.348
26915	847.560
26916	808.435
26917	858.110
26918	840.087
26919	815.908
26920	815.469
26921	775.025
26922	822.063
26923	787.334
26924	808.875
26925	806.237
26926	775.904
26927	818.985
26928	787.334
26929	808.875
26930	804.918
26931	778.981
26932	833.053
26933	815.469
26934	829.976
26935	829.976
26936	794.368
26937	839.647
26938	811.952
26939	819.425
26940	828.657
26941	794.807
26942	847.999
26943	826.019
26944	829.976
26945	833.053
26946	786.894
26947	827.338
26948	801.401
26949	791.290
26950	801.401
26951	769.750
26952	816.787
26953	806.677
26954	787.773
26955	813.710
26956	762.716
26957	818.985
26958	801.401
26959	808.875
26960	812.831
26961	779.421
26962	826.459
26963	806.677
26964	787.773
26965	815.908
26966	783.817
26967	829.976
26968	822.502
26969	787.773
26970	817.227
26971	794.368
26972	829.976
26973	838.768
26974	806.677
26975	854.594
26976	822.502
26977	815.908
26978	829.536
26979	792.609
26980	844.043
26981	838.768
26982	805.358
26983	824.261
26984	780.300
26985	801.841
26986	785.136
26987	764.914
26988	840.087
26989	836.570
26990	829.976
26991	815.469
26992	771.508
26993	812.831
26994	801.401
26995	787.773
26996	822.502
26997	808.435
26998	817.227
26999	827.778
27000	790.851
27001	835.251
27002	815.469
27003	791.290
27004	826.019
27005	794.368
27006	819.425
27007	811.952
27008	773.706
27009	821.623
27010	801.401
27011	801.841
27012	815.469
27013	782.059
27014	827.778
27015	818.985
27016	795.686
27017	836.570
27018	801.401
27019	815.908
27020	814.589
27021	783.817
27022	830.855
27023	812.831
27024	794.807
27025	820.744
27026	792.609
27027	823.821
27028	815.908
27029	778.102
27030	827.778
27031	814.150
27032	794.807
27033	818.106
27034	787.334
27035	819.425
27036	809.314
27037	775.025
27038	821.183
27039	801.401
27040	798.324
27041	815.469
27042	780.300
27043	815.908
27044	804.918
27045	773.706
27046	824.261
27047	799.643
27048	787.773
27049	811.952
27050	801.401
27051	865.144
27052	874.815
27053	844.043
27054	876.134
27055	843.603
27056	815.908
27057	818.985
27058	773.266
27059	798.324
27060	776.783
27061	777.223
27062	810.193
27063	804.918
27064	872.178
27065	854.594
27066	801.841
27067	832.613
27068	787.334
27069	798.324
27070	801.401
27071	771.508
27072	818.546
27073	808.435
27074	787.773
27075	827.778
27076	797.884
27077	805.358
27078	804.478
27079	769.750
27080	814.150
27081	808.875
27082	773.706
27083	814.589
27084	787.334
27085	801.841
27086	813.271
27087	790.851
27088	840.526
27089	822.942
27090	797.884
27091	833.053
27092	801.401
27093	847.560
27094	838.768
27095	801.841
27096	835.690
27097	801.401
27098	798.324
27099	796.126
27100	764.474
27101	808.875
27102	790.851
27103	766.672
27104	826.019
27105	811.952
27106	829.976
27107	822.502
27108	780.300
27109	829.976
27110	828.657
27111	808.875
27112	850.637
27113	829.536
27114	850.197
27115	857.671
27116	826.019
27117	861.627
27118	832.613
27119	794.807
27120	822.502
27121	787.334
27122	787.773
27123	783.817
27124	757.880
27125	805.797
27126	787.334
27127	766.672
27128	801.401
27129	783.817
27130	819.425
27131	837.009
27132	812.391
27133	848.439
27134	825.140
27135	803.599
27136	833.053
27137	794.368
27138	808.875
27139	796.126
27140	766.672
27141	818.985
27142	814.589
27143	801.841
27144	833.053
27145	797.884
27146	812.391
27147	803.160
27148	766.233
27149	822.502
27150	815.469
27151	801.841
27152	822.502
27153	783.817
27154	808.875
27155	804.039
27156	778.981
27157	840.526
27158	831.294
27159	815.908
27160	836.570
27161	776.783
27162	830.855
27163	822.502
27164	798.324
27165	815.469
27166	787.334
27167	815.908
27168	802.280
27169	765.354
27170	823.821
27171	822.502
27172	815.908
27173	857.671
27174	822.502
27175	822.942
27176	811.952
27177	773.266
27178	826.459
27179	823.381
27180	796.566
27181	848.879
27182	826.019
27183	824.700
27184	840.087
27185	801.401
27186	831.734
27187	816.787
27188	780.740
27189	826.019
27190	800.522
27191	787.773
27192	806.677
27193	772.387
27194	808.875
27195	800.082
27196	768.431
27197	818.106
27198	796.126
27199	787.773
27200	808.435
27201	772.387
27202	800.082
27203	784.696
27204	753.924
27205	817.667
27206	835.690
27207	837.888
27208	882.289
27209	840.087
27210	844.922
27211	829.976
27212	789.092
27213	829.976
27214	810.193
27215	780.740
27216	815.469
27217	787.334
27218	794.807
27219	801.401
27220	780.300
27221	840.526
27222	837.009
27223	812.391
27224	843.603
27225	808.435
27226	815.908
27227	813.710
27228	783.817
27229	832.613
27230	818.546
27231	773.706
27232	804.918
27233	773.266
27234	787.773
27235	793.049
27236	773.266
27237	837.009
27238	842.724
27239	815.908
27240	857.671
27241	836.570
27242	837.009
27243	843.603
27244	801.401
27245	837.009
27246	812.391
27247	770.189
27248	815.469
27249	787.334
27250	773.706
27251	794.368
27252	766.233
27253	805.358
27254	818.106
27255	789.092
27256	826.459
27257	799.203
27258	762.716
27259	815.469
27260	801.401
27261	822.942
27262	830.415
27263	796.126
27264	834.811
27265	822.502
27266	824.700
27267	835.690
27268	801.401
27269	838.768
27270	823.821
27271	781.179
27272	822.502
27273	787.334
27274	787.773
27275	833.053
27276	822.502
27277	845.801
27278	828.657
27279	786.015
27280	830.855
27281	813.710
27282	775.025
27283	815.469
27284	787.334
27285	791.290
27286	798.764
27287	771.508
27288	808.875
27289	801.841
27290	761.397
27291	811.952
27292	801.401
27293	808.875
27294	854.154
27295	794.807
27296	837.009
27297	834.811
27298	801.401
27299	858.110
27300	834.811
27301	801.841
27302	822.502
27303	787.334
27304	808.875
27305	808.435
27306	773.706
27307	817.667
27308	806.237
27309	780.740
27310	826.019
27311	811.952
27312	819.425
27313	829.536
27314	797.884
27315	829.976
27316	822.502
27317	787.773
27318	829.976
27319	808.435
27320	791.290
27321	818.985
27322	787.334
27323	804.039
27324	815.908
27325	794.368
27326	838.768
27327	821.183
27328	787.773
27329	818.985
27330	787.334
27331	793.928
27332	808.435
27333	782.059
27334	829.976
27335	831.734
27336	804.918
27337	859.869
27338	847.999
27339	817.667
27340	844.043
27341	801.401
27342	801.841
27343	808.435
27344	776.783
27345	812.391
27346	804.039
27347	766.672
27348	815.908
27349	799.643
27350	787.773
27351	815.469
27352	787.334
27353	801.841
27354	796.126
27355	758.320
27356	791.290
27357	791.290
27358	778.102
27359	849.318
27360	836.570
27361	829.976
27362	868.221
27363	843.603
27364	858.110
27365	843.603
27366	781.179
27367	838.328
27368	826.019
27369	815.908
27370	827.778
27371	784.696
27372	801.841
27373	801.841
27374	770.629
27375	819.425
27376	809.314
27377	777.223
27378	830.415
27379	826.019
27380	808.875
27381	815.908
27382	769.750
27383	801.841
27384	795.247
27385	767.112
27386	824.700
27387	818.985
27388	794.807
27389	837.009
27390	806.677
27391	808.875
27392	818.985
27393	799.643
27394	844.043
27395	831.734
27396	784.257
27397	817.227
27398	790.851
27399	766.672
27400	811.952
27401	799.643
27402	819.425
27403	828.657
27404	794.368
27405	826.459
27406	810.633
27407	773.266
27408	815.908
27409	799.643
27410	773.706
27411	813.710
27412	794.368
27413	815.908
27414	826.019
27415	787.334
27416	837.009
27417	834.372
27418	819.865
27419	886.685
27420	857.671
27421	819.425
27422	818.985
27423	773.266
27424	792.169
27425	794.807
27426	770.189
27427	820.304
27428	797.884
27429	773.706
27430	827.778
27431	809.314
27432	801.841
27433	817.227
27434	799.643
27435	851.077
27436	852.396
27437	813.710
27438	854.594
27439	831.294
27440	788.213
27441	824.261
27442	794.368
27443	777.223
27444	792.609
27445	766.233
27446	794.807
27447	789.971
27448	752.605
27449	801.401
27450	797.005
27451	775.464
27452	818.985
27453	787.334
27454	787.773
27455	811.952
27456	801.401
27457	858.110
27458	879.211
27459	852.835
27460	906.467
27461	881.849
27462	819.425
27463	834.811
27464	787.334
27465	787.773
27466	801.401
27467	773.266
27468	808.875
27469	780.300
27470	787.773
27471	801.401
27472	766.233
27473	787.773
27474	795.247
27475	780.300
27476	819.425
27477	809.754
27478	787.773
27479	847.560
27480	838.328
27481	802.720
27482	840.087
27483	803.160
27484	801.841
27485	810.193
27486	773.266
27487	801.841
27488	808.435
27489	787.334
27490	840.526
27491	840.526
27492	805.358
27493	850.637
27494	826.019
27495	798.324
27496	829.536
27497	801.401
27498	801.841
27499	805.358
27500	771.508
27501	815.908
27502	808.875
27503	774.146
27504	808.875
27505	798.324
27506	787.773
27507	851.077
27508	840.087
27509	815.908
27510	847.120
27511	808.435
27512	805.358
27513	815.469
27514	794.368
27515	828.217
27516	815.908
27517	764.474
27518	804.478
27519	817.667
27520	829.976
27521	899.873
27522	864.704
27523	812.391
27524	818.985
27525	764.474
27526	787.773
27527	787.773
27528	769.750
27529	815.908
27530	810.193
27531	775.904
27532	826.459
27533	811.952
27534	789.532
27535	821.623
27536	783.817
27537	773.706
27538	794.368
27539	766.233
27540	807.116
27541	828.217
27542	807.116
27543	868.661
27544	856.792
27545	812.391
27546	849.318
27547	822.502
27548	801.841
27549	827.778
27550	801.401
27551	815.908
27552	817.227
27553	780.300
27554	805.358
27555	801.401
27556	766.233
27557	819.425
27558	819.865
27559	798.324
27560	846.681
27561	825.580
27562	787.773
27563	826.019
27564	811.073
27565	815.908
27566	822.502
27567	780.300
27568	801.841
27569	792.609
27570	762.716
27571	801.841
27572	773.266
27573	787.773
27574	822.502
27575	815.469
27576	851.077
27577	856.792
27578	833.053
27579	872.178
27580	846.681
27581	773.706
27582	792.169
27583	764.474
27584	738.538
27585	785.575
27586	787.334
27587	815.908
27588	871.738
27589	857.671
27590	879.211
27591	854.154
27592	804.039
27593	826.459
27594	801.401
27595	766.672
27596	807.116
27597	781.179
27598	760.518
27599	801.401
27600	808.435
27601	847.560
27602	850.637
27603	815.469
27604	845.801
27605	819.865
27606	778.981
27607	808.875
27608	780.300
27609	752.605
27610	787.334
27611	766.233
27612	773.706
27613	790.851
27614	780.740
27615	829.976
27616	866.023
27617	864.704
27618	907.346
27619	863.386
27620	794.807
27621	824.261
27622	803.160
27623	773.706
27624	802.280
27625	786.455
27626	815.908
27627	812.831
27628	783.817
27629	829.976
27630	820.304
27631	784.257
27632	825.580
27633	811.073
27634	787.773
27635	824.261
27636	801.401
27637	787.773
27638	801.401
27639	780.300
27640	798.324
27641	801.401
27642	776.783
27643	819.425
27644	803.599
27645	764.914
27646	837.009
27647	842.285
27648	822.502
27649	872.617
27650	843.603
27651	829.976
27652	839.207
27653	813.710
27654	829.976
27655	807.995
27656	752.165
27657	784.257
27658	751.726
27659	724.470
27660	797.005
27661	826.019
27662	829.976
27663	857.671
27664	829.536
27665	844.043
27666	880.970
27667	850.637
27668	865.144
27669	847.120
27670	803.160
27671	840.526
27672	821.183
27673	781.619
27674	825.580
27675	787.334
27676	801.841
27677	806.677
27678	769.750
27679	812.391
27680	794.807
27681	751.726
27682	787.773
27683	773.266
27684	738.538
27685	775.025
27686	762.716
27687	759.639
27688	818.985
27689	822.502
27690	851.077
27691	873.497
27692	841.845
27693	847.560
27694	828.657
27695	787.334
27696	829.976
27697	828.657
27698	793.049
27699	831.734
27700	820.304
27701	788.653
27702	829.096
27703	792.609
27704	749.088
27705	794.368
27706	773.266
27707	773.706
27708	847.999
27709	843.603
27710	844.043
27711	854.154
27712	829.536
27713	851.077
27714	843.164
27715	792.609
27716	819.425
27717	802.720
27718	767.552
27719	819.425
27720	819.865
27721	798.324
27722	838.328
27723	808.435
27724	787.773
27725	787.334
27726	750.407
27727	770.189
27728	774.146
27729	759.199
27730	829.976
27731	843.603
27732	813.710
27733	844.043
27734	817.227
27735	774.585
27736	823.821
27737	815.469
27738	766.672
27739	815.469
27740	815.469
27741	810.633
27742	861.188
27743	843.603
27744	844.043
27745	850.637
27746	808.435
27747	815.908
27748	808.435
27749	773.266
27750	780.740
27751	741.175
27752	727.547
27753	812.391
27754	837.888
27755	844.043
27756	928.447
27757	915.259
27758	823.381
27759	811.073
27760	787.334
27761	787.773
27762	826.019
27763	787.334
27764	770.189
27765	784.257
27766	773.266
27767	815.908
27768	822.502
27769	789.092
27770	829.976
27771	821.183
27772	779.421
27773	815.469
27774	794.807
27775	766.672
27776	808.435
27777	776.783
27778	815.908
27779	811.512
27780	777.662
27781	829.976
27782	830.855
27783	804.918
27784	845.801
27785	820.744
27786	787.773
27787	820.744
27788	822.502
27789	829.976
27790	857.671
27791	826.898
27792	815.908
27793	805.797
27794	760.958
27795	789.532
27796	818.106
27797	828.657
27798	886.245
27799	847.560
27800	775.464
27801	801.401
27802	783.817
27803	766.672
27804	801.401
27805	773.266
27806	766.672
27807	790.411
27808	787.334
27809	851.077
27810	866.463
27811	817.227
27812	837.009
27813	815.908
27814	791.730
27815	846.241
27816	829.096
27817	791.290
27818	831.294
27819	811.952
27820	773.706
27821	799.203
27822	787.334
27823	796.566
27824	815.029
27825	783.817
27826	810.633
27827	800.082
27828	759.639
27829	805.358
27830	806.677
27831	794.807
27832	843.603
27833	815.469
27834	801.841
27835	811.952
27836	797.884
27837	844.043
27838	877.453
27839	861.627
27840	872.178
27841	844.043
27842	784.696
27843	816.787
27844	796.126
27845	759.639
27846	794.368
27847	766.233
27848	756.122
27849	818.985
27850	829.536
27851	865.144
27852	878.772
27853	815.469
27854	819.425
27855	804.918
27856	766.233
27857	791.290
27858	771.948
27859	717.437
27860	759.639
27861	778.542
27862	815.908
27863	921.414
27864	913.940
27865	844.043
27866	811.512
27867	759.199
27868	763.156
27869	794.368
27870	794.368
27871	829.976
27872	834.811
27873	801.401
27874	837.888
27875	826.459
27876	783.377
27877	826.459
27878	801.401
27879	803.599
27880	820.744
27881	731.064
27882	731.504
27883	746.890
27884	790.851
27885	908.225
27886	923.172
27887	870.419
27888	878.332
27889	817.227
27890	773.266
27891	832.174
27892	825.580
27893	798.324
27894	815.469
27895	787.334
27896	787.773
27897	822.502
27898	815.469
27899	829.976
27900	831.294
27901	787.334
27902	807.995
27903	793.488
27904	770.629
27905	822.942
27906	833.492
27907	785.575
27908	784.696
27909	771.508
27910	745.571
27911	808.435
27912	822.942
27913	808.875
27914	808.435
27915	801.401
27916	815.908
27917	843.603
27918	829.536
27919	844.043
27920	815.469
27921	773.266
27922	812.391
27923	812.391
27924	787.773
27925	840.526
27926	814.589
27927	787.773
27928	847.120
27929	850.637
27930	829.976
27931	854.154
27932	815.469
27933	798.324
27934	822.502
27935	794.368
27936	798.324
27937	801.401
27938	794.368
27939	822.942
27940	811.952
27941	790.851
27942	829.976
27943	810.193
27944	770.629
27945	819.425
27946	800.082
27947	746.451
27948	786.894
27949	783.817
27950	759.639
27951	813.271
27952	811.952
27953	808.875
27954	850.637
27955	801.401
27956	794.807
27957	842.724
27958	850.637
27959	875.695
27960	850.637
27961	797.884
27962	810.633
27963	770.629
27964	766.233
27965	829.976
27966	826.459
27967	800.082
27968	866.902
27969	829.096
27970	787.773
27971	840.087
27972	833.053
27973	815.908
27974	813.710
27975	773.266
27976	735.021
27977	794.368
27978	815.469
27979	851.077
27980	824.261
27981	731.064
27982	819.865
27983	843.603
27984	824.700
27985	840.087
27986	815.469
27987	822.942
27988	831.294
27989	794.368
27990	821.183
27991	804.478
27992	766.233
27993	780.740
27994	779.421
27995	748.649
27996	804.478
27997	817.667
27998	800.082
27999	837.888
28000	821.183
28001	791.290
28002	837.888
28003	827.778
28004	803.599
28005	838.328
28006	808.435
28007	801.841
28008	822.502
28009	804.918
28010	822.942
28011	814.589
28012	786.015
28013	831.734
28014	827.778
28015	759.199
28016	815.908
28017	829.976
28018	796.126
28019	855.473
28020	856.352
28021	823.821
28022	838.328
28023	787.334
28024	759.639
28025	797.884
28026	766.233
28027	787.773
28028	796.126
28029	776.783
28030	819.425
28031	836.570
28032	815.469
28033	854.594
28034	840.526
28035	796.126
28036	829.976
28037	814.150
28038	780.740
28039	829.976
28040	804.918
28041	787.773
28042	818.985
28043	794.368
28044	773.706
28045	815.469
28046	773.266
28047	787.773
28048	850.637
28049	854.154
28050	872.178
28051	844.483
28052	787.334
28053	805.358
28054	800.522
28055	765.354
28056	808.875
28057	787.773
28058	753.045
28059	811.073
28060	804.039
28061	787.773
28062	829.536
28063	827.778
28064	805.358
28065	847.120
28066	801.401
28067	808.875
28068	829.536
28069	794.368
28070	815.908
28071	826.898
28072	810.633
28073	837.009
28074	834.372
28075	801.401
28076	844.043
28077	822.502
28078	783.377
28079	847.560
28080	870.859
28081	829.976
28082	827.778
28083	755.682
28084	791.290
28085	790.851
28086	757.441
28087	798.324
28088	784.257
28089	752.165
28090	794.807
28091	818.985
28092	812.391
28093	847.560
28094	808.875
28095	763.156
28096	816.787
28097	808.435
28098	801.841
28099	843.603
28100	811.952
28101	801.841
28102	831.294
28103	808.875
28104	817.667
28105	822.502
28106	787.334
28107	801.841
28108	811.952
28109	787.334
28110	833.492
28111	812.391
28112	766.233
28113	817.667
28114	816.787
28115	810.633
28116	897.235
28117	877.893
28118	815.908
28119	818.985
28120	787.334
28121	787.773
28122	822.502
28123	851.077
28124	829.976
28125	812.831
28126	759.199
28127	759.639
28128	771.508
28129	755.682
28130	815.908
28131	818.985
28132	766.233
28133	810.633
28134	797.445
28135	782.059
28136	852.835
28137	853.275
28138	829.976
28139	851.956
28140	818.985
28141	787.773
28142	825.580
28143	804.918
28144	791.290
28145	829.536
28146	811.952
28147	801.841
28148	843.603
28149	829.536
28150	819.425
28151	824.261
28152	787.334
28153	808.875
28154	815.469
28155	785.575
28156	815.908
28157	826.019
28158	833.053
28159	865.144
28160	808.875
28161	773.706
28162	812.391
28163	793.928
28164	752.605
28165	778.542
28166	762.716
28167	731.504
28168	792.609
28169	782.059
28170	759.639
28171	807.556
28172	811.952
28173	812.391
28174	891.960
28175	864.704
28176	844.043
28177	826.019
28178	801.401
28179	844.043
28180	831.294
28181	822.942
28182	865.144
28183	832.613
28184	815.469
28185	849.318
28186	776.783
28187	759.639
28188	815.469
28189	794.368
28190	797.884
28191	798.324
28192	759.199
28193	791.290
28194	807.995
28195	787.334
28196	829.976
28197	833.053
28198	787.334
28199	826.459
28200	810.633
28201	780.740
28202	854.594
28203	845.801
28204	798.324
28205	835.251
28206	837.009
28207	844.483
28208	890.641
28209	843.603
28210	805.358
28211	833.053
28212	759.199
28213	738.538
28214	741.615
28215	702.930
28216	745.571
28217	800.522
28218	799.643
28219	837.009
28220	826.898
28221	783.817
28222	814.150
28223	808.435
28224	784.696
28225	840.526
28226	831.294
28227	795.686
28228	844.483
28229	836.570
28230	815.908
28231	848.879
28232	833.053
28233	822.942
28234	836.570
28235	815.469
28236	829.976
28237	841.845
28238	787.334
28239	808.875
28240	877.453
28241	843.603
28242	833.492
28243	778.981
28244	730.185
28245	801.841
28246	808.875
28247	766.233
28248	795.247
28249	782.938
28250	743.813
28251	803.160
28252	805.797
28253	777.223
28254	818.985
28255	810.193
28256	787.773
28257	833.053
28258	826.019
28259	815.908
28260	838.328
28261	871.738
28262	914.380
28263	866.463
28264	780.300
28265	771.068
28266	766.672
28267	738.098
28268	787.773
28269	782.059
28270	745.132
28271	830.855
28272	877.453
28273	811.952
28274	819.425
28275	834.811
28276	812.391
28277	827.338
28278	813.710
28279	788.653
28280	815.469
28281	808.435
28282	787.773
28283	810.193
28284	787.334
28285	794.807
28286	815.469
28287	797.884
28288	837.009
28289	851.077
28290	908.225
28291	912.182
28292	813.710
28293	731.504
28294	769.750
28295	780.300
28296	766.672
28297	790.851
28298	766.233
28299	787.773
28300	806.677
28301	787.334
28302	801.841
28303	817.227
28304	815.469
28305	832.613
28306	866.902
28307	854.154
28308	851.077
28309	818.985
28310	767.991
28311	805.358
28312	808.875
28313	779.861
28314	829.976
28315	818.985
28316	798.324
28317	861.627
28318	850.197
28319	815.908
28320	840.087
28321	787.334
28322	858.110
28323	882.289
28324	790.851
28325	770.629
28326	722.272
28327	687.543
28328	759.639
28329	775.025
28330	759.639
28331	808.435
28332	824.700
28333	805.358
28334	841.845
28335	790.851
28336	872.178
28337	860.308
28338	797.884
28339	831.734
28340	854.154
28341	815.908
28342	864.704
28343	808.435
28344	773.706
28345	815.469
28346	843.603
28347	844.043
28348	783.817
28349	727.547
28350	735.021
28351	754.803
28352	780.300
28353	803.599
28354	795.686
28355	764.914
28356	829.976
28357	810.193
28358	815.908
28359	843.603
28360	810.193
28361	903.829
28362	877.013
28363	801.401
28364	808.875
28365	820.744
28366	848.879
28367	900.312
28368	857.671
28369	829.976
28370	779.421
28371	722.272
28372	676.114
28373	724.031
28374	728.427
28375	731.504
28376	800.522
28377	770.629
28378	864.265
28379	800.082
28380	864.704
28381	829.976
28382	844.922
28383	862.946
28384	843.603
28385	826.459
28386	854.154
28387	841.845
28388	844.043
28389	906.907
28390	829.536
28391	803.599
28392	913.940
28393	843.603
28394	759.639
28395	720.514
28396	688.862
28397	710.403
28398	777.662
28399	757.441
28400	759.639
28401	797.884
28402	787.334
28403	787.773
28404	827.778
28405	815.469
28406	793.049
28407	843.603
28408	878.772
28409	879.211
28410	878.772
28411	811.952
28412	766.672
28413	815.469
28414	819.425
28415	801.841
28416	833.053
28417	815.469
28418	824.700
28419	948.229
28420	885.806
28421	763.156
28422	731.064
28423	675.234
28424	748.649
28425	745.132
28426	742.054
28427	797.884
28428	801.401
28429	771.508
28430	815.908
28431	833.053
28432	815.469
28433	822.942
28434	843.603
28435	822.502
28436	822.942
28437	843.603
28438	829.536
28439	802.280
28440	842.724
28441	826.019
28442	822.942
28443	852.396
28444	826.019
28445	801.841
28446	839.647
28447	815.469
28448	787.773
28449	814.150
28450	794.368
28451	763.156
28452	809.314
28453	801.401
28454	780.740
28455	837.449
28456	833.492
28457	840.526
28458	893.279
28459	822.502
28460	756.122
28461	829.976
28462	833.053
28463	789.092
28464	811.512
28465	773.706
28466	731.504
28467	774.585
28468	763.595
28469	745.571
28470	823.821
28471	819.425
28472	798.324
28473	844.043
28474	831.734
28475	808.875
28476	856.352
28477	837.888
28478	801.841
28479	837.009
28480	855.473
28481	829.536
28482	840.526
28483	786.015
28484	770.189
28485	840.526
28486	815.469
28487	763.156
28488	811.952
28489	796.566
28490	747.330
28491	797.445
28492	787.334
28493	794.807
28494	818.985
28495	801.401
28496	815.908
28497	815.469
28498	787.334
28499	815.908
28500	829.536
28501	815.469
28502	822.942
28503	857.671
28504	850.637
28505	815.908
28506	826.019
28507	815.469
28508	824.700
28509	892.839
28510	856.352
28511	775.464
28512	780.740
28513	759.199
28514	738.538
28515	801.401
28516	787.773
28517	762.276
28518	829.976
28519	826.459
28520	793.488
28521	838.768
28522	817.667
28523	787.773
28524	829.976
28525	820.304
28526	783.377
28527	833.492
28528	821.623
28529	812.831
28530	858.110
28531	884.047
28532	878.772
28533	851.077
28534	813.710
28535	750.407
28536	759.639
28537	762.716
28538	741.615
28539	745.571
28540	787.334
28541	809.314
28542	801.841
28543	829.536
28544	808.435
28545	781.179
28546	831.734
28547	815.908
28548	760.518
28549	815.908
28550	821.183
28551	793.488
28552	820.304
28553	800.522
28554	794.368
28555	844.043
28556	857.671
28557	871.738
28558	879.211
28559	843.603
28560	780.300
28561	787.773
28562	797.884
28563	773.266
28564	768.431
28565	787.773
28566	783.817
28567	794.807
28568	822.502
28569	804.918
28570	819.425
28571	857.671
28572	850.637
28573	837.009
28574	850.197
28575	829.536
28576	815.908
28577	827.778
28578	787.334
28579	773.706
28580	773.266
28581	759.199
28582	773.706
28583	804.918
28584	787.334
28585	794.807
28586	820.744
28587	808.435
28588	810.633
28589	831.734
28590	811.952
28591	815.908
28592	833.053
28593	808.435
28594	815.908
28595	829.536
28596	790.851
28597	834.372
28598	822.502
28599	790.851
28600	847.560
28601	852.835
28602	813.710
28603	844.043
28604	819.425
28605	782.498
28606	817.667
28607	790.851
28608	750.847
28609	799.203
28610	789.971
28611	762.716
28612	813.271
28613	829.976
28614	815.908
28615	874.815
28616	843.603
28617	759.639
28618	781.179
28619	774.585
28620	757.880
28621	817.667
28622	815.908
28623	787.773
28624	833.932
28625	835.251
28626	794.807
28627	840.526
28628	829.976
28629	815.908
28630	899.873
28631	870.419
28632	787.773
28633	798.764
28634	776.783
28635	752.605
28636	792.609
28637	783.817
28638	767.552
28639	827.778
28640	819.425
28641	829.976
28642	848.879
28643	811.952
28644	791.290
28645	832.174
28646	804.918
28647	794.807
28648	844.483
28649	838.328
28650	815.908
28651	829.536
28652	801.401
28653	787.773
28654	815.469
28655	787.334
28656	794.807
28657	819.865
28658	801.401
28659	808.875
28660	829.536
28661	815.469
28662	822.942
28663	829.536
28664	797.005
28665	822.942
28666	836.570
28667	787.334
28668	787.773
28669	804.918
28670	797.884
28671	815.908
28672	815.469
28673	780.300
28674	808.875
28675	822.502
28676	785.575
28677	801.841
28678	801.401
28679	776.783
28680	814.150
28681	817.227
28682	792.609
28683	822.942
28684	820.744
28685	801.401
28686	829.976
28687	820.744
28688	792.609
28689	829.976
28690	824.261
28691	822.502
28692	858.110
28693	832.174
28694	781.179
28695	815.908
28696	801.841
28697	756.122
28698	822.502
28699	815.908
28700	787.773
28701	821.623
28702	810.193
28703	787.773
28704	846.241
28705	843.164
28706	794.807
28707	806.677
28708	799.643
28709	773.706
28710	817.227
28711	805.797
28712	787.773
28713	836.570
28714	816.348
28715	787.773
28716	815.469
28717	787.334
28718	787.773
28719	826.019
28720	836.570
28721	851.077
28722	864.704
28723	811.952
28724	794.807
28725	794.368
28726	766.233
28727	780.740
28728	797.884
28729	787.334
28730	815.908
28731	843.603
28732	815.029
28733	803.599
28734	811.952
28735	787.334
28736	824.700
28737	854.154
28738	815.469
28739	804.918
28740	824.261
28741	822.942
28742	815.908
28743	818.985
28744	780.300
28745	787.773
28746	829.536
28747	815.469
28748	819.425
28749	826.019
28750	801.401
28751	801.841
28752	815.469
28753	794.368
28754	787.773
28755	799.643
28756	787.334
28757	808.435
28758	821.623
28759	797.884
28760	803.599
28761	815.469
28762	801.401
28763	829.976
28764	868.221
28765	847.120
28766	914.380
28767	869.980
28768	780.300
28769	749.088
28770	752.165
28771	745.132
28772	759.639
28773	773.266
28774	752.165
28775	801.841
28776	818.985
28777	801.401
28778	833.492
28779	871.738
28780	836.570
28781	808.875
28782	798.324
28783	776.783
28784	787.773
28785	827.778
28786	811.952
28787	819.425
28788	838.768
28789	811.952
28790	819.425
28791	829.536
28792	808.435
28793	822.942
28794	836.570
28795	801.401
28796	801.841
28797	808.875
28798	787.334
28799	801.841
28800	814.589
28801	778.542
28802	822.942
28803	822.942
28804	793.488
28805	844.483
28806	822.942
28807	797.884
28808	886.245
28809	865.144
28810	777.662
28811	780.740
28812	757.880
28813	730.625
28814	791.290
28815	786.015
28816	766.233
28817	822.942
28818	807.995
28819	774.585
28820	831.734
28821	832.174
28822	798.324
28823	843.164
28824	830.415
28825	797.005
28826	844.043
28827	831.294
28828	813.710
28829	882.728
28830	853.714
28831	789.971
28832	844.043
28833	838.768
28834	782.059
28835	798.324
28836	776.344
28837	742.494
28838	791.290
28839	780.740
28840	752.165
28841	815.908
28842	815.908
28843	775.025
28844	818.985
28845	801.401
28846	775.464
28847	815.908
28848	815.469
28849	787.334
28850	773.706
28851	822.942
28852	827.778
28853	848.879
28854	900.312
28855	892.839
28856	815.469
28857	787.773
28858	794.368
28859	783.817
28860	764.914
28861	806.677
28862	796.126
28863	773.706
28864	818.985
28865	812.391
28866	789.532
28867	837.888
28868	822.502
28869	790.411
28870	838.768
28871	824.700
28872	787.773
28873	824.261
28874	821.183
28875	789.092
28876	829.976
28877	822.502
28878	793.488
28879	829.976
28880	822.502
28881	794.368
28882	833.492
28883	839.207
28884	801.401
28885	819.425
28886	831.294
28887	808.435
28888	837.009
28889	829.976
28890	773.266
28891	776.783
28892	776.783
28893	759.199
28894	794.807
28895	794.368
28896	773.266
28897	787.773
28898	787.334
28899	776.783
28900	808.875
28901	815.469
28902	773.266
28903	827.338
28904	820.304
28905	809.314
28906	872.178
28907	844.922
28908	794.807
28909	832.613
28910	820.304
28911	787.773
28912	865.144
28913	850.197
28914	796.566
28915	829.976
28916	798.324
28917	762.276
28918	810.633
28919	796.126
28920	761.837
28921	809.754
28922	809.314
28923	776.783
28924	816.348
28925	815.908
28926	787.773
28927	837.009
28928	830.415
28929	800.082
28930	844.043
28931	837.009
28932	798.324
28933	834.811
28934	810.193
28935	773.706
28936	824.700
28937	815.908
28938	787.773
28939	831.294
28940	815.469
28941	801.841
28942	840.526
28943	813.710
28944	773.706
28945	820.304
28946	804.478
28947	773.706
28948	853.714
28949	851.077
28950	787.773
28951	809.314
28952	787.334
28953	759.639
28954	822.063
28955	818.985
28956	787.773
28957	840.087
28958	825.140
28959	791.290
28960	840.087
28961	821.623
28962	791.290
28963	832.613
28964	818.985
28965	787.773
28966	831.294
28967	813.710
28968	787.773
28969	828.657
28970	815.469
28971	798.324
28972	843.603
28973	821.183
28974	794.807
28975	831.294
28976	827.778
28977	794.807
28978	821.183
28979	794.368
28980	768.431
28981	815.029
28982	797.005
28983	773.706
28984	815.469
28985	813.710
28986	780.740
28987	826.019
28988	804.918
28989	787.773
28990	836.130
28991	815.469
28992	794.807
28993	837.888
28994	822.502
28995	794.807
28996	831.294
28997	812.831
28998	801.841
28999	836.570
29000	818.985
29001	791.290
29002	836.570
29003	826.019
29004	801.841
29005	840.087
29006	801.401
29007	822.942
29008	830.415
29009	801.401
29010	819.425
29011	813.710
29012	785.575
29013	808.875
29014	822.502
29015	792.609
29016	801.841
29017	811.952
29018	787.334
29019	798.324
29020	821.623
29021	801.401
29022	801.401
29023	825.140
29024	806.677
29025	798.324
29026	818.985
29027	801.401
29028	815.908
29029	831.294
29030	808.435
29031	801.841
29032	818.985
29033	808.435
29034	808.875
29035	834.811
29036	820.744
29037	787.773
29038	830.855
29039	819.425
29040	787.773
29041	833.492
29042	815.908
29043	782.498
29044	822.942
29045	812.831
29046	783.817
29047	819.425
29048	815.908
29049	780.300
29050	817.667
29051	825.140
29052	794.368
29053	787.773
29054	829.536
29055	828.217
29056	798.324
29057	850.197
29058	844.043
29059	789.092
29060	815.908
29061	798.764
29062	766.233
29063	787.773
29064	801.401
29065	773.266
29066	749.088
29067	818.106
29068	829.096
29069	796.566
29070	831.734
29071	818.985
29072	796.126
29073	837.009
29074	849.758
29075	827.778
29076	822.942
29077	838.328
29078	815.469
29079	782.059
29080	829.976
29081	818.985
29082	789.092
29083	817.667
29084	812.391
29085	776.783
29086	791.290
29087	810.193
29088	801.401
29089	794.807
29090	824.261
29091	801.401
29092	777.223
29093	824.700
29094	814.150
29095	778.981
29096	819.425
29097	815.469
29098	789.092
29099	819.425
29100	818.985
29101	783.817
29102	787.773
29103	821.623
29104	822.502
29105	808.875
29106	855.473
29107	822.502
29108	801.841
29109	840.087
29110	826.019
29111	808.875
29112	841.845
29113	815.469
29114	794.807
29115	828.657
29116	813.710
29117	787.773
29118	831.294
29119	815.469
29120	787.773
29121	826.898
29122	814.150
29123	770.189
29124	815.908
29125	804.039
29126	773.706
29127	826.459
29128	809.754
29129	771.068
29130	819.425
29131	811.952
29132	780.740
29133	829.976
29134	820.304
29135	783.817
29136	819.425
29137	810.633
29138	777.662
29139	829.976
29140	818.985
29141	787.773
29142	824.700
29143	802.280
29144	774.146
29145	829.976
29146	829.976
29147	808.875
29148	845.801
29149	844.043
29150	811.952
29151	844.043
29152	832.613
29153	794.368
29154	822.942
29155	808.435
29156	773.266
29157	815.908
29158	796.126
29159	759.199
29160	801.841
29161	826.019
29162	811.952
29163	844.043
29164	835.690
29165	787.334
29166	812.391
29167	811.952
29168	780.300
29169	793.049
29170	797.884
29171	780.300
29172	805.358
29173	833.053
29174	815.469
29175	829.976
29176	836.570
29177	794.368
29178	791.290
29179	811.952
29180	801.401
29181	803.599
29182	829.536
29183	813.710
29184	801.841
29185	822.502
29186	797.884
29187	787.773
29188	818.985
29189	801.401
29190	787.773
29191	833.053
29192	815.469
29193	791.290
29194	834.372
29195	822.502
29196	791.290
29197	826.019
29198	810.633
29199	777.662
29200	827.778
29201	815.469
29202	787.773
29203	832.174
29204	818.106
29205	782.498
29206	829.976
29207	812.831
29208	775.464
29209	826.459
29210	787.334
29211	794.807
29212	815.469
29213	783.817
29214	766.672
29215	808.435
29216	822.502
29217	822.942
29218	877.013
29219	864.704
29220	818.546
29221	856.352
29222	829.976
29223	791.290
29224	837.009
29225	820.744
29226	777.223
29227	823.381
29228	811.512
29229	780.740
29230	829.976
29231	811.952
29232	781.179
29233	828.217
29234	811.952
29235	768.431
29236	812.391
29237	801.841
29238	766.672
29239	815.908
29240	815.469
29241	797.445
29242	851.077
29243	841.405
29244	808.875
29245	847.560
29246	819.425
29247	775.025
29248	829.976
29249	800.522
29250	760.958
29251	806.237
29252	800.082
29253	778.542
29254	844.043
29255	844.483
29256	815.908
29257	851.077
29258	817.667
29259	774.146
29260	815.908
29261	805.358
29262	784.696
29263	837.009
29264	829.976
29265	787.334
29266	817.667
29267	799.643
29268	771.508
29269	812.391
29270	812.391
29271	782.059
29272	822.502
29273	804.918
29274	779.861
29275	822.942
29276	823.821
29277	794.368
29278	831.734
29279	824.261
29280	790.851
29281	815.908
29282	808.435
29283	780.300
29284	815.908
29285	820.744
29286	801.401
29287	832.613
29288	836.570
29289	801.401
29290	815.908
29291	811.952
29292	783.817
29293	801.841
29294	815.469
29295	801.401
29296	822.942
29297	840.087
29298	816.348
29299	829.976
29300	829.536
29301	794.368
29302	801.841
29303	813.710
29304	780.300
29305	787.773
29306	801.401
29307	792.169
29308	815.908
29309	829.536
29310	801.401
29311	805.358
29312	811.952
29313	782.059
29314	830.415
29315	822.063
29316	789.092
29317	829.976
29318	814.589
29319	783.817
29320	829.976
29321	814.589
29322	783.817
29323	815.908
29324	805.797
29325	780.300
29326	819.425
29327	817.227
29328	787.334
29329	818.546
29330	818.106
29331	794.368
29332	831.734
29333	827.778
29334	790.851
29335	822.942
29336	822.502
29337	797.884
29338	822.942
29339	822.942
29340	787.334
29341	815.908
29342	815.469
29343	782.938
29344	808.875
29345	808.435
29346	780.300
29347	794.807
29348	805.358
29349	783.817
29350	805.358
29351	813.710
29352	787.334
29353	801.841
29354	816.348
29355	801.401
29356	808.875
29357	840.966
29358	843.603
29359	844.043
29360	871.738
29361	850.637
29362	829.976
29363	856.352
29364	815.469
29365	777.223
29366	810.193
29367	794.368
29368	766.672
29369	810.193
29370	797.884
29371	773.706
29372	821.183
29373	783.817
29374	742.054
29375	804.918
29376	806.237
29377	787.773
29378	844.043
29379	840.966
29380	815.908
29381	865.144
29382	844.043
29383	799.203
29384	831.734
29385	810.633
29386	773.706
29387	815.908
29388	804.478
29389	779.861
29390	824.261
29391	833.053
29392	811.952
29393	808.875
29394	829.096
29395	811.952
29396	791.290
29397	815.469
29398	797.884
29399	784.257
29400	815.469
29401	801.401
29402	787.773
29403	818.985
29404	774.585
29405	840.526
29406	822.502
29407	787.773
29408	831.294
29409	815.469
29410	791.290
29411	830.415
29412	813.710
29413	787.773
29414	828.657
29415	801.401
29416	805.358
29417	827.778
29418	800.522
29419	787.773
29420	820.744
29421	810.193
29422	777.223
29423	820.744
29424	808.435
29425	777.223
29426	819.865
29427	785.575
29428	837.009
29429	845.362
29430	819.425
29431	850.637
29432	847.120
29433	811.952
29434	822.942
29435	822.502
29436	794.368
29437	815.908
29438	834.811
29439	815.469
29440	815.908
29441	826.019
29442	799.643
29443	787.773
29444	815.469
29445	794.368
29446	775.464
29447	815.029
29448	799.643
29449	770.189
29450	818.985
29451	804.918
29452	780.740
29453	829.976
29454	815.908
29455	787.773
29456	829.976
29457	818.985
29458	785.575
29459	829.976
29460	815.908
29461	780.740
29462	822.942
29463	815.029
29464	786.894
29465	822.942
29466	816.348
29467	785.575
29468	819.425
29469	815.469
29470	783.817
29471	802.280
29472	801.401
29473	780.300
29474	797.005
29475	811.952
29476	794.368
29477	819.425
29478	841.845
29479	829.536
29480	822.942
29481	843.603
29482	817.227
29483	815.908
29484	833.053
29485	811.952
29486	801.841
29487	827.778
29488	811.952
29489	801.841
29490	829.536
29491	811.952
29492	791.290
29493	829.536
29494	813.710
29495	782.498
29496	826.019
29497	808.875
29498	773.706
29499	817.227
29500	801.401
29501	766.672
29502	807.116
29503	803.160
29504	794.807
29505	861.188
29506	851.077
29507	802.720
29508	833.492
29509	811.512
29510	771.508
29511	819.425
29512	812.391
29513	780.740
29514	822.063
29515	807.116
29516	770.189
29517	817.667
29518	810.193
29519	787.773
29520	840.087
29521	834.811
29522	815.908
29523	843.603
29524	804.918
29525	829.976
29526	840.526
29527	801.401
29528	822.502
29529	822.942
29530	801.401
29531	808.435
29532	764.914
29533	805.797
29534	838.328
29535	815.469
29536	837.009
29537	835.251
29538	787.334
29539	826.459
29540	804.918
29541	798.324
29542	801.401
29543	816.787
29544	777.223
29545	806.677
29546	821.183
29547	773.266
29548	805.797
29549	787.773
29550	815.469
29551	801.401
29552	791.290
29553	817.667
29554	829.976
29555	787.773
29556	815.469
29557	819.425
29558	801.401
29559	829.536
29560	798.324
29561	820.744
29562	835.690
29563	787.773
29564	815.908
29565	829.976
29566	792.609
29567	819.425
29568	815.469
29569	815.908
29570	811.952
29571	826.019
29572	798.324
29573	815.469
29574	833.492
29575	789.092
29576	822.502
29577	794.807
29578	822.942
29579	828.217
29580	787.334
29581	822.502
29582	803.599
29583	794.807
29584	826.019
29585	793.049
29586	828.217
29587	845.801
29588	801.401
29589	822.942
29590	822.502
29591	815.469
29592	835.251
29593	787.334
29594	819.425
29595	812.831
29596	778.542
29597	815.469
29598	828.217
29599	797.005
29600	811.512
29601	815.908
29602	780.300
29603	804.918
29604	801.841
29605	794.368
29606	808.435
29607	803.599
29608	826.019
29609	847.560
29610	804.918
29611	844.043
29612	830.855
29613	833.492
29614	815.469
29615	829.536
29616	794.807
29617	820.744
29618	829.976
29619	783.817
29620	815.908
29621	794.368
29622	815.469
29623	815.908
29624	799.643
29625	815.469
29626	815.908
29627	799.643
29628	811.952
29629	787.773
29630	822.502
29631	801.401
29632	787.773
29633	815.469
29634	829.536
29635	787.773
29636	812.831
29637	829.976
29638	790.411
29639	815.908
29640	822.942
29641	790.851
29642	818.985
29643	815.908
29644	811.952
29645	827.778
29646	789.532
29647	814.150
29648	829.976
29649	787.773
29650	815.029
29651	819.425
29652	808.435
29653	826.019
29654	805.358
29655	815.469
29656	829.096
29657	805.358
29658	813.710
29659	829.976
29660	816.348
29661	829.976
29662	794.368
29663	818.985
29664	808.875
29665	804.039
29666	822.502
29667	782.498
29668	814.150
29669	828.217
29670	782.938
29671	820.304
29672	833.492
29673	815.469
29674	840.526
29675	801.841
29676	822.502
29677	826.459
29678	812.391
29679	784.257
29680	829.976
29681	784.696
29682	815.469
29683	829.976
29684	799.643
29685	818.985
29686	829.976
29687	804.918
29688	825.580
29689	831.734
29690	789.092
29691	816.348
29692	794.807
29693	822.502
29694	829.976
29695	794.368
29696	811.952
29697	801.841
29698	806.677
29699	773.266
29700	815.908
29701	801.401
29702	815.469
29703	791.290
29704	815.029
29705	834.811
29706	789.092
29707	822.502
29708	833.492
29709	793.049
29710	822.063
29711	832.613
29712	808.435
29713	833.053
29714	787.773
29715	815.469
29716	787.334
29717	822.502
29718	801.841
29719	804.039
29720	773.706
29721	801.841
29722	815.908
29723	804.918
29724	780.300
29725	841.845
29726	827.778
29727	794.807
29728	834.811
29729	815.908
29730	826.459
29731	826.019
29732	794.807
29733	813.710
29734	783.817
29735	831.734
29736	830.855
29737	844.043
29738	815.469
29739	829.536
29740	815.908
29741	819.865
29742	787.773
29743	826.898
29744	812.391
29745	833.492
29746	793.488
29747	816.348
29748	819.425
29749	806.677
29750	775.464
29751	825.580
29752	808.435
29753	822.063
29754	769.750
29755	796.126
29756	815.908
29757	807.995
29758	808.875
29759	829.536
29760	794.368
29761	826.019
29762	787.773
29763	794.368
29764	805.358
29765	776.783
29766	805.358
29767	811.952
29768	787.334
29769	843.603
29770	865.144
29771	862.506
29772	878.772
29773	855.473
29774	822.502
29775	833.053
29776	794.368
29777	808.875
29778	759.639
29779	780.300
29780	745.132
29781	787.334
29782	793.049
29783	787.334
29784	811.952
29785	781.179
29786	833.492
29787	817.667
29788	774.585
29789	801.401
29790	808.875
29791	794.368
29792	826.019
29793	808.875
29794	873.497
29795	869.980
29796	847.560
29797	865.144
29798	871.738
29799	819.865
29800	844.043
29801	822.502
29802	812.831
29803	780.300
29804	752.605
29805	797.445
29806	821.183
29807	786.894
29808	823.821
29809	837.009
29810	789.092
29811	823.821
29812	799.643
29813	812.391
29814	763.156
29815	794.807
29816	794.807
29817	759.199
29818	773.706
29819	775.025
29820	759.199
29821	818.985
29822	822.942
29823	833.053
29824	844.043
29825	833.053
29826	806.677
29827	854.594
29828	815.469
29829	818.985
29830	804.918
29831	811.952
29832	826.459
29833	808.875
29834	811.952
29835	815.469
29836	794.807
29837	811.952
29838	822.942
29839	833.053
29840	801.401
29841	822.502
29842	817.667
29843	799.643
29844	815.469
29845	808.875
29846	801.401
29847	843.164
29848	845.362
29849	858.110
29850	822.942
29851	850.637
29852	806.677
29853	815.469
29854	761.837
29855	791.290
29856	778.981
29857	797.884
29858	759.639
29859	784.257
29860	791.290
29861	794.807
29862	788.213
29863	853.714
29864	836.570
29865	847.560
29866	794.368
29867	814.589
29868	822.942
29869	811.952
29870	815.908
29871	810.193
29872	787.334
29873	833.053
29874	829.976
29875	850.637
29876	864.704
29877	819.425
29878	856.792
29879	829.536
29880	776.783
29881	794.368
29882	759.639
29883	771.508
29884	771.508
29885	759.639
29886	769.750
29887	822.502
29888	837.009
29889	885.806
29890	844.922
29891	865.144
29892	820.744
29893	805.358
29894	766.233
29895	780.300
29896	738.538
29897	766.233
29898	787.773
29899	788.653
29900	843.603
29901	820.304
29902	868.661
29903	840.966
29904	803.599
29905	825.140
29906	833.053
29907	789.092
29908	826.459
29909	848.439
29910	799.643
29911	821.183
29912	815.908
29913	759.639
29914	794.807
29915	817.667
29916	811.952
29917	843.603
29918	805.358
29919	834.811
29920	840.526
29921	787.334
29922	822.942
29923	829.536
29924	801.401
29925	837.888
29926	805.358
29927	818.985
29928	791.290
29929	814.150
29930	776.783
29931	815.908
29932	801.401
29933	808.875
29934	804.039
29935	826.019
29936	792.169
29937	807.116
29938	764.914
29939	812.391
29940	798.764
29941	794.807
29942	766.233
29943	800.522
29944	815.908
29945	829.536
29946	815.908
29947	844.043
29948	811.952
29949	843.603
29950	815.908
29951	850.637
29952	865.584
29953	806.677
29954	845.362
29955	822.502
29956	778.542
29957	811.512
29958	747.330
29959	760.518
29960	759.639
29961	796.126
29962	787.773
29963	836.570
29964	822.502
29965	853.714
29966	807.556
29967	830.415
29968	808.875
29969	821.183
29970	789.532
29971	844.043
29972	828.657
29973	836.130
29974	811.952
29975	842.285
29976	822.502
29977	822.942
29978	836.570
29979	804.918
29980	826.459
29981	801.401
29982	811.952
29983	787.773
29984	808.435
29985	808.875
29986	788.213
29987	760.958
29988	820.304
29989	784.696
29990	808.435
29991	808.875
29992	829.536
29993	866.902
29994	855.033
29995	815.908
29996	836.570
29997	775.025
29998	801.401
29999	794.807
30000	787.334
30001	795.686
30002	776.783
30003	746.451
30004	805.797
30005	783.817
30006	815.469
30007	819.425
30008	787.334
30009	836.570
30010	826.019
30011	844.043
30012	846.241
30013	817.667
30014	817.227
30015	818.985
30016	787.773
30017	813.710
30018	849.758
30019	831.734
30020	865.144
30021	851.077
30022	822.063
30023	773.706
30024	805.358
30025	752.165
30026	775.025
30027	817.667
30028	811.952
30029	855.912
30030	804.918
30031	815.469
30032	815.908
30033	779.421
30034	801.841
30035	812.391
30036	786.455
30037	818.985
30038	769.750
30039	809.314
30040	830.855
30041	872.178
30042	850.637
30043	878.332
30044	833.053
30045	834.372
30046	800.962
30047	759.639
30048	801.841
30049	787.334
30050	808.875
30051	773.706
30052	801.401
30053	815.908
30054	800.962
30055	760.078
30056	808.875
30057	787.334
30058	826.019
30059	819.425
30060	834.811
30061	847.560
30062	833.492
30063	793.049
30064	829.976
30065	779.861
30066	811.073
30067	819.425
30068	826.019
30069	852.835
30070	829.976
30071	789.532
30072	817.227
30073	806.237
30074	836.130
30075	842.285
30076	787.773
30077	801.401
30078	762.716
30079	808.875
30080	823.381
30081	844.043
30082	838.328
30083	835.690
30084	787.773
30085	812.391
30086	775.025
30087	828.217
30088	815.469
30089	824.700
30090	776.783
30091	794.807
30092	796.566
30093	769.750
30094	777.223
30095	800.522
30096	794.368
30097	858.110
30098	850.637
30099	878.772
30100	822.502
30101	828.657
30102	778.542
30103	812.391
30104	794.807
30105	794.807
30106	794.368
30107	812.831
30108	778.542
30109	818.985
30110	794.368
30111	822.942
30112	825.580
30113	801.841
30114	822.942
30115	822.942
30116	806.677
30117	789.532
30118	787.334
30119	809.754
30120	780.740
30121	812.831
30122	788.213
30123	847.560
30124	837.009
30125	844.043
30126	806.677
30127	810.193
30128	791.290
30129	821.183
30130	829.976
30131	868.221
30132	838.328
30133	873.497
30134	844.043
30135	822.502
30136	827.778
30137	775.025
30138	815.908
30139	787.334
30140	731.504
30141	766.233
30142	787.773
30143	780.300
30144	804.918
30145	787.773
30146	843.603
30147	840.087
30148	858.110
30149	847.120
30150	780.300
30151	805.358
30152	804.039
30153	824.700
30154	822.502
30155	840.526
30156	791.290
30157	787.334
30158	801.401
30159	787.773
30160	797.884
30161	810.633
30162	808.875
30163	784.257
30164	833.053
30165	794.368
30166	819.425
30167	822.942
30168	792.609
30169	812.391
30170	822.942
30171	787.334
30172	815.469
30173	822.942
30174	808.435
30175	833.053
30176	798.324
30177	818.106
30178	825.140
30179	777.662
30180	801.401
30181	768.431
30182	808.875
30183	797.884
30184	770.189
30185	800.962
30186	815.908
30187	829.536
30188	867.782
30189	851.077
30190	808.435
30191	819.865
30192	815.908
30193	815.469
30194	830.415
30195	815.908
30196	794.368
30197	808.435
30198	815.908
30199	764.914
30200	780.740
30201	815.908
30202	838.328
30203	813.710
30204	858.990
30205	829.536
30206	827.778
30207	844.043
30208	811.512
30209	842.285
30210	854.594
30211	807.556
30212	822.942
30213	829.976
30214	773.706
30215	787.334
30216	796.566
30217	759.199
30218	787.773
30219	765.793
30220	745.132
30221	800.962
30222	815.908
30223	815.908
30224	833.053
30225	801.841
30226	826.019
30227	787.334
30228	794.807
30229	801.401
30230	818.985
30231	783.817
30232	809.314
30233	791.290
30234	787.334
30235	759.639
30236	808.435
30237	791.290
30238	856.352
30239	884.047
30240	845.801
30241	869.100
30242	861.627
30243	849.758
30244	803.160
30245	808.435
30246	798.324
30247	794.368
30248	773.266
30249	835.690
30250	831.294
30251	801.841
30252	815.469
30253	778.542
30254	801.841
30255	831.294
30256	815.469
30257	872.178
30258	848.439
30259	802.720
30260	837.449
30261	806.677
30262	774.585
30263	794.368
30264	787.334
30265	815.908
30266	831.294
30267	799.643
30268	833.492
30269	812.391
30270	773.706
30271	812.391
30272	801.841
30273	766.672
30274	809.314
30275	787.334
30276	787.773
30277	811.073
30278	787.334
30279	801.841
30280	811.952
30281	780.300
30282	812.391
30283	790.411
30284	739.856
30285	787.773
30286	784.257
30287	762.716
30288	828.657
30289	821.183
30290	801.841
30291	868.221
30292	871.738
30293	872.178
30294	887.564
30295	855.912
30296	848.439
30297	847.120
30298	813.710
30299	851.077
30300	844.043
30301	788.653
30302	805.358
30303	769.310
30304	744.692
30305	815.029
30306	826.019
30307	815.908
30308	847.120
30309	801.401
30310	815.908
30311	813.710
30312	792.609
30313	819.425
30314	792.169
30315	724.031
30316	742.054
30317	752.605
30318	772.387
30319	868.661
30320	878.332
30321	819.425
30322	840.087
30323	811.073
30324	787.773
30325	840.526
30326	836.570
30327	815.908
30328	842.724
30329	801.401
30330	773.706
30331	787.334
30332	773.266
30333	808.875
30334	811.952
30335	780.300
30336	815.908
30337	787.334
30338	763.156
30339	815.469
30340	814.589
30341	817.667
30342	855.912
30343	822.502
30344	815.908
30345	824.261
30346	808.435
30347	844.043
30348	864.704
30349	836.570
30350	844.043
30351	819.865
30352	776.783
30353	795.247
30354	798.764
30355	760.958
30356	794.368
30357	802.720
30358	783.817
30359	824.700
30360	817.667
30361	795.247
30362	844.043
30363	829.976
30364	791.730
30365	791.290
30366	750.847
30367	742.054
30368	844.483
30369	885.806
30370	868.661
30371	883.168
30372	822.063
30373	787.773
30374	813.710
30375	794.368
30376	805.358
30377	822.502
30378	794.368
30379	791.290
30380	799.643
30381	776.783
30382	801.841
30383	787.334
30384	762.716
30385	812.391
30386	832.613
30387	813.710
30388	829.976
30389	801.401
30390	786.015
30391	837.009
30392	832.174
30393	798.764
30394	837.009
30395	813.271
30396	773.706
30397	815.908
30398	800.082
30399	773.706
30400	833.053
30401	829.536
30402	808.875
30403	822.502
30404	787.334
30405	767.991
30406	826.019
30407	836.570
30408	829.976
30409	850.637
30410	833.053
30411	831.734
30412	836.570
30413	794.368
30414	794.807
30415	808.435
30416	759.199
30417	773.706
30418	801.401
30419	822.502
30420	872.178
30421	860.308
30422	801.401
30423	814.150
30424	788.213
30425	756.122
30426	804.478
30427	804.039
30428	780.300
30429	832.613
30430	815.469
30431	775.464
30432	787.773
30433	767.991
30434	775.464
30435	869.100
30436	853.714
30437	789.532
30438	815.908
30439	759.199
30440	801.841
30441	831.294
30442	801.401
30443	808.875
30444	799.643
30445	766.233
30446	787.773
30447	815.469
30448	801.401
30449	819.425
30450	843.603
30451	836.570
30452	861.627
30453	871.738
30454	834.811
30455	829.976
30456	822.502
30457	787.334
30458	801.841
30459	808.435
30460	787.334
30461	815.908
30462	821.623
30463	787.334
30464	805.358
30465	811.952
30466	782.059
30467	798.324
30468	797.005
30469	794.368
30470	819.425
30471	822.502
30472	738.098
30473	780.740
30474	845.362
30475	824.261
30476	844.043
30477	815.469
30478	775.464
30479	805.358
30480	799.643
30481	766.233
30482	808.875
30483	814.589
30484	793.488
30485	837.009
30486	829.976
30487	787.334
30488	808.875
30489	821.623
30490	798.764
30491	845.801
30492	840.966
30493	817.227
30494	824.700
30495	777.223
30496	766.233
30497	812.391
30498	815.469
30499	808.435
30500	854.594
30501	838.328
30502	789.092
30503	815.908
30504	802.280
30505	769.750
30506	815.908
30507	805.797
30508	776.783
30509	830.855
30510	826.459
30511	803.160
30512	854.594
30513	837.888
30514	792.609
30515	830.855
30516	812.831
30517	777.223
30518	821.183
30519	807.116
30520	771.508
30521	822.942
30522	815.908
30523	787.773
30524	838.328
30525	822.502
30526	801.841
30527	836.570
30528	826.019
30529	801.841
30530	829.536
30531	790.851
30532	787.773
30533	804.918
30534	780.300
30535	787.773
30536	822.502
30537	804.918
30538	787.773
30539	767.112
30540	787.334
30541	829.976
30542	847.120
30543	820.744
30544	854.594
30545	832.613
30546	793.049
30547	833.492
30548	818.985
30549	767.991
30550	791.290
30551	785.136
30552	753.484
30553	810.633
30554	818.985
30555	794.807
30556	851.077
30557	856.352
30558	824.700
30559	851.077
30560	819.425
30561	766.233
30562	801.841
30563	822.942
30564	803.160
30565	797.445
30566	815.908
30567	812.831
30568	861.627
30569	840.526
30570	804.478
30571	844.043
30572	808.875
30573	773.706
30574	828.217
30575	808.875
30576	759.639
30577	796.566
30578	786.015
30579	760.958
30580	817.227
30581	808.875
30582	780.300
30583	839.647
30584	837.449
30585	805.358
30586	854.154
30587	829.096
30588	787.773
30589	840.526
30590	810.633
30591	773.706
30592	817.667
30593	792.609
30594	759.639
30595	804.918
30596	780.300
30597	761.397
30598	840.966
30599	837.449
30600	815.908
30601	848.879
30602	829.536
30603	815.908
30604	843.603
30605	857.671
30606	836.570
30607	843.603
30608	808.435
30609	805.358
30610	806.677
30611	780.300
30612	780.740
30613	804.918
30614	787.334
30615	787.773
30616	799.643
30617	773.266
30618	798.324
30619	800.082
30620	766.233
30621	794.807
30622	822.502
30623	797.884
30624	815.908
30625	833.053
30626	818.985
30627	844.043
30628	850.637
30629	815.469
30630	829.976
30631	833.053
30632	801.401
30633	829.976
30634	832.613
30635	822.502
30636	844.043
30637	843.603
30638	794.368
30639	787.773
30640	801.401
30641	780.300
30642	805.358
30643	818.985
30644	766.233
30645	808.875
30646	803.599
30647	755.682
30648	787.773
30649	776.783
30650	757.441
30651	823.821
30652	833.053
30653	798.764
30654	829.976
30655	822.942
30656	801.841
30657	851.077
30658	837.009
30659	797.005
30660	830.415
30661	821.183
30662	801.401
30663	837.009
30664	829.976
30665	801.401
30666	810.633
30667	790.851
30668	755.682
30669	794.807
30670	817.227
30671	829.536
30672	851.077
30673	818.985
30674	772.827
30675	801.841
30676	813.710
30677	783.817
30678	787.773
30679	808.435
30680	776.783
30681	787.773
30682	810.633
30683	801.401
30684	815.908
30685	831.294
30686	829.536
30687	858.110
30688	884.487
30689	843.603
30690	801.841
30691	801.401
30692	776.783
30693	759.639
30694	792.609
30695	783.817
30696	764.914
30697	815.469
30698	811.952
30699	791.290
30700	846.241
30701	834.811
30702	798.324
30703	836.570
30704	822.502
30705	796.126
30706	831.294
30707	831.294
30708	810.633
30709	851.516
30710	826.898
30711	797.005
30712	872.178
30713	873.497
30714	815.469
30715	822.942
30716	782.498
30717	738.538
30718	789.532
30719	796.566
30720	761.397
30721	811.952
30722	796.566
30723	769.310
30724	828.217
30725	824.261
30726	793.049
30727	832.174
30728	813.271
30729	774.585
30730	821.183
30731	808.435
30732	793.049
30733	853.714
30734	838.328
30735	801.841
30736	872.178
30737	847.560
30738	783.817
30739	797.005
30740	787.773
30741	763.156
30742	809.754
30743	796.566
30744	771.068
30745	861.627
30746	815.469
30747	787.773
30748	811.952
30749	787.334
30750	787.773
30751	820.744
30752	818.985
30753	801.841
30754	821.183
30755	795.247
30756	777.223
30757	843.164
30758	836.570
30759	815.908
30760	857.671
30761	838.328
30762	798.324
30763	840.087
30764	816.348
30765	789.532
30766	835.251
30767	811.073
30768	780.740
30769	843.603
30770	857.671
30771	811.512
30772	826.898
30773	790.851
30774	742.054
30775	787.773
30776	798.324
30777	794.807
30778	847.560
30779	830.855
30780	806.677
30781	844.043
30782	811.512
30783	770.189
30784	815.908
30785	821.183
30786	802.280
30787	826.459
30788	817.227
30789	773.266
30790	800.082
30791	775.464
30792	745.132
30793	798.324
30794	795.686
30795	783.817
30796	822.942
30797	844.483
30798	829.976
30799	844.043
30800	813.710
30801	766.233
30802	800.082
30803	804.918
30804	794.368
30805	831.734
30806	822.502
30807	801.401
30808	829.976
30809	824.261
30810	787.334
30811	815.908
30812	804.039
30813	801.401
30814	847.560
30815	871.738
30816	822.502
30817	829.976
30818	812.831
30819	769.750
30820	791.290
30821	794.368
30822	759.199
30823	787.773
30824	836.570
30825	822.502
30826	819.425
30827	808.435
30828	769.750
30829	777.223
30830	808.435
30831	787.334
30832	815.908
30833	843.603
30834	834.811
30835	837.009
30836	869.980
30837	857.671
30838	819.425
30839	819.425
30840	783.817
30841	759.639
30842	780.300
30843	759.199
30844	759.639
30845	814.589
30846	822.502
30847	819.425
30848	842.724
30849	815.469
30850	872.178
30851	861.188
30852	780.300
30853	749.088
30854	766.233
30855	764.474
30856	787.773
30857	827.778
30858	818.985
30859	805.358
30860	846.241
30861	840.087
30862	864.265
30863	896.796
30864	837.009
30865	763.595
30866	802.720
30867	787.773
30868	761.397
30869	833.492
30870	818.985
30871	778.542
30872	819.425
30873	810.193
30874	777.662
30875	829.976
30876	814.150
30877	776.783
30878	822.942
30879	822.502
30880	808.435
30881	829.976
30882	812.391
30883	783.817
30884	822.502
30885	818.985
30886	794.368
30887	847.560
30888	877.893
30889	829.536
30890	817.667
30891	800.522
30892	773.266
30893	789.532
30894	766.233
30895	731.064
30896	759.639
30897	784.257
30898	766.233
30899	787.773
30900	794.368
30901	783.817
30902	801.841
30903	836.570
30904	836.570
30905	844.043
30906	869.540
30907	843.603
30908	829.976
30909	855.912
30910	833.053
30911	809.754
30912	841.845
30913	821.183
30914	794.807
30915	827.778
30916	815.469
30917	822.942
30918	871.738
30919	857.671
30920	801.841
30921	810.193
30922	772.827
30923	731.504
30924	783.817
30925	782.059
30926	755.243
30927	805.358
30928	787.334
30929	773.706
30930	837.009
30931	826.459
30932	805.358
30933	854.594
30934	837.449
30935	801.841
30936	844.043
30937	828.217
30938	791.290
30939	836.130
30940	822.063
30941	785.136
30942	829.976
30943	808.875
30944	780.740
30945	833.492
30946	818.985
30947	780.300
30948	806.677
30949	807.995
30950	767.991
30951	815.908
30952	814.150
30953	787.773
30954	838.768
30955	826.019
30956	794.807
30957	841.845
30958	822.502
30959	790.411
30960	833.492
30961	814.150
30962	776.783
30963	819.425
30964	808.435
30965	783.817
30966	819.425
30967	815.469
30968	787.334
30969	819.425
30970	822.502
30971	797.884
30972	815.908
30973	822.063
30974	808.435
30975	872.178
30976	887.564
30977	829.536
30978	805.358
30979	801.401
30980	759.199
30981	745.571
30982	770.629
30983	745.132
30984	759.639
30985	801.401
30986	797.884
30987	798.324
30988	836.570
30989	815.469
30990	794.807
30991	843.603
30992	833.053
30993	815.908
30994	897.675
30995	865.584
30996	789.092
30997	812.391
30998	791.290
30999	764.914
31000	815.908
31001	812.391
31002	789.092
31003	837.009
31004	823.821
31005	790.851
31006	819.425
31007	804.478
31008	794.368
31009	855.033
31010	840.526
31011	772.387
31012	789.532
31013	787.773
31014	755.243
31015	804.918
31016	801.401
31017	776.783
31018	826.459
31019	822.502
31020	794.368
31021	826.459
31022	819.425
31023	793.488
31024	844.043
31025	837.009
31026	801.401
31027	840.526
31028	824.261
31029	792.609
31030	824.700
31031	822.942
31032	790.851
31033	829.976
31034	822.942
31035	790.851
31036	819.425
31037	803.160
31038	773.266
31039	801.841
31040	801.401
31041	786.455
31042	817.667
31043	814.589
31044	787.334
31045	815.908
31046	817.227
31047	783.817
31048	815.908
31049	821.623
31050	801.401
31051	847.560
31052	861.188
31053	820.744
31054	872.178
31055	827.778
31056	773.706
31057	787.773
31058	759.639
31059	718.755
31060	763.156
31061	771.948
31062	776.783
31063	837.009
31064	814.150
31065	770.629
31066	808.875
31067	809.314
31068	783.817
31069	819.425
31070	824.261
31071	808.435
31072	833.492
31073	840.087
31074	811.952
31075	833.492
31076	836.570
31077	822.502
31078	829.976
31079	843.603
31080	822.502
31081	815.908
31082	820.744
31083	787.334
31084	794.807
31085	833.053
31086	815.469
31087	787.773
31088	822.502
31089	808.435
31090	787.773
31091	834.811
31092	821.623
31093	796.566
31094	837.449
31095	822.502
31096	791.290
31097	832.174
31098	794.368
31099	752.605
31100	800.082
31101	804.918
31102	779.861
31103	829.976
31104	818.546
31105	787.773
31106	826.898
31107	815.908
31108	787.773
31109	830.855
31110	815.908
31111	780.300
31112	829.976
31113	817.667
31114	790.411
31115	833.053
31116	828.217
31117	804.039
31118	831.294
31119	816.348
31120	782.059
31121	805.358
31122	801.401
31123	783.817
31124	805.358
31125	810.193
31126	783.817
31127	808.875
31128	829.536
31129	815.469
31130	829.976
31131	843.603
31132	801.401
31133	787.773
31134	797.884
31135	787.334
31136	787.773
31137	836.570
31138	829.536
31139	829.976
31140	862.506
31141	827.778
31142	787.773
31143	813.271
31144	797.005
31145	773.706
31146	826.019
31147	815.469
31148	787.773
31149	828.217
31150	817.227
31151	787.773
31152	833.492
31153	817.667
31154	793.049
31155	854.594
31156	815.469
31157	787.773
31158	827.778
31159	813.710
31160	787.773
31161	830.415
31162	829.536
31163	815.469
31164	868.661
31165	864.265
31166	800.962
31167	805.358
31168	765.354
31169	724.031
31170	764.914
31171	769.750
31172	757.441
31173	801.841
31174	810.193
31175	780.300
31176	819.425
31177	829.536
31178	801.401
31179	829.976
31180	830.415
31181	801.401
31182	815.908
31183	831.294
31184	808.435
31185	808.875
31186	833.053
31187	857.671
31188	865.144
31189	867.342
31190	818.985
31191	787.773
31192	800.522
31193	787.334
31194	770.189
31195	808.435
31196	797.445
31197	766.233
31198	819.865
31199	822.063
31200	787.773
31201	833.492
31202	822.502
31203	784.257
31204	829.976
31205	815.469
31206	780.740
31207	829.976
31208	818.106
31209	789.092
31210	837.009
31211	825.140
31212	794.368
31213	833.492
31214	824.261
31215	818.985
31216	854.594
31217	847.120
31218	801.401
31219	808.875
31220	811.952
31221	787.334
31222	787.773
31223	797.884
31224	773.266
31225	773.706
31226	808.435
31227	787.334
31228	787.773
31229	822.502
31230	808.875
31231	787.773
31232	829.536
31233	815.469
31234	787.773
31235	840.087
31236	829.536
31237	789.532
31238	829.976
31239	819.425
31240	787.773
31241	837.009
31242	826.459
31243	790.851
31244	833.492
31245	821.183
31246	790.851
31247	829.976
31248	815.469
31249	787.334
31250	822.942
31251	822.502
31252	794.368
31253	829.976
31254	842.724
31255	822.502
31256	831.734
31257	822.502
31258	760.958
31259	815.908
31260	797.445
31261	762.276
31262	798.324
31263	787.773
31264	764.474
31265	801.841
31266	797.884
31267	773.266
31268	817.667
31269	818.985
31270	790.851
31271	822.942
31272	829.536
31273	801.401
31274	822.942
31275	848.879
31276	822.502
31277	808.875
31278	836.570
31279	815.469
31280	790.851
31281	822.502
31282	804.918
31283	775.464
31284	811.073
31285	794.368
31286	780.740
31287	831.734
31288	821.183
31289	790.851
31290	838.328
31291	826.898
31292	792.169
31293	837.009
31294	823.381
31295	787.773
31296	835.251
31297	837.888
31298	800.962
31299	829.976
31300	808.875
31301	772.827
31302	815.908
31303	808.875
31304	780.300
31305	817.667
31306	804.918
31307	785.575
31308	819.425
31309	818.985
31310	787.334
31311	808.875
31312	815.469
31313	794.368
31314	815.908
31315	822.502
31316	794.368
31317	801.841
31318	836.570
31319	822.502
31320	808.875
31321	815.469
31322	787.334
31323	791.290
31324	818.985
31325	801.401
31326	801.841
31327	829.536
31328	826.019
31329	815.908
31330	844.043
31331	815.469
31332	787.773
31333	826.019
31334	826.019
31335	808.875
31336	840.966
31337	818.985
31338	787.773
31339	815.469
31340	791.730
31341	761.397
31342	821.623
31343	817.227
31344	776.344
31345	822.942
31346	808.875
31347	770.629
31348	815.908
31349	809.754
31350	789.092
31351	844.043
31352	839.207
31353	804.918
31354	829.976
31355	829.536
31356	815.469
31357	848.879
31358	838.328
31359	797.884
31360	808.875
31361	810.193
31362	750.407
31363	794.807
31364	791.290
31365	759.199
31366	815.908
31367	804.918
31368	780.300
31369	822.942
31370	818.985
31371	794.368
31372	829.976
31373	826.019
31374	797.884
31375	815.908
31376	827.778
31377	801.401
31378	794.807
31379	813.710
31380	801.401
31381	791.290
31382	836.570
31383	829.536
31384	822.942
31385	884.047
31386	843.603
31387	787.773
31388	805.797
31389	780.300
31390	763.156
31391	815.469
31392	801.401
31393	780.740
31394	829.976
31395	807.995
31396	761.397
31397	808.875
31398	801.401
31399	774.146
31400	822.063
31401	815.908
31402	783.377
31403	829.976
31404	824.261
31405	794.368
31406	843.603
31407	837.449
31408	815.469
31409	875.695
31410	862.067
31411	808.435
31412	810.633
31413	794.368
31414	759.199
31415	773.706
31416	786.455
31417	766.233
31418	787.773
31419	815.469
31420	808.435
31421	815.908
31422	839.647
31423	822.502
31424	829.976
31425	857.671
31426	829.536
31427	791.290
31428	826.019
31429	804.478
31430	773.706
31431	815.908
31432	811.952
31433	787.773
31434	822.502
31435	815.469
31436	787.773
31437	836.130
31438	819.425
31439	787.773
31440	837.009
31441	821.183
31442	781.179
31443	837.009
31444	837.888
31445	794.368
31446	826.459
31447	815.469
31448	794.368
31449	835.251
31450	826.459
31451	775.025
31452	798.324
31453	788.213
31454	759.199
31455	794.807
31456	811.952
31457	822.502
31458	837.009
31459	815.469
31460	780.300
31461	791.290
31462	814.589
31463	746.890
31464	816.787
31465	821.183
31466	792.609
31467	833.492
31468	836.130
31469	815.469
31470	844.043
31471	831.294
31472	805.358
31473	844.043
31474	845.801
31475	804.918
31476	787.773
31477	801.401
31478	780.300
31479	773.706
31480	806.677
31481	798.324
31482	787.773
31483	826.019
31484	815.469
31485	794.807
31486	827.778
31487	811.952
31488	791.290
31489	836.570
31490	821.183
31491	787.773
31492	831.734
31493	815.029
31494	775.464
31495	829.976
31496	808.875
31497	773.706
31498	829.976
31499	821.183
31500	790.851
31501	844.043
31502	833.932
31503	801.401
31504	829.976
31505	819.865
31506	797.884
31507	822.942
31508	827.778
31509	797.884
31510	819.425
31511	833.053
31512	808.435
31513	808.875
31514	815.469
31515	787.334
31516	801.841
31517	815.029
31518	794.368
31519	794.807
31520	822.063
31521	806.677
31522	793.928
31523	829.976
31524	813.710
31525	791.290
31526	843.603
31527	843.603
31528	808.875
31529	844.043
31530	812.831
31531	766.672
31532	799.643
31533	791.730
31534	763.156
31535	821.623
31536	820.304
31537	784.257
31538	822.942
31539	805.358
31540	773.706
31541	826.459
31542	805.797
31543	774.146
31544	815.908
31545	812.831
31546	785.575
31547	815.908
31548	817.227
31549	799.643
31550	837.009
31551	836.570
31552	806.677
31553	826.459
31554	827.338
31555	796.126
31556	801.841
31557	822.502
31558	801.401
31559	808.875
31560	829.536
31561	811.952
31562	815.908
31563	829.536
31564	811.952
31565	805.358
31566	817.227
31567	794.368
31568	815.908
31569	818.985
31570	794.368
31571	808.875
31572	822.502
31573	797.884
31574	809.754
31575	829.536
31576	801.401
31577	791.290
31578	815.469
31579	801.401
31580	781.619
31581	831.734
31582	811.952
31583	789.532
31584	855.473
31585	842.724
31586	791.290
31587	829.976
31588	819.425
31589	793.928
31590	844.043
31591	824.261
31592	776.783
31593	803.599
31594	796.126
31595	767.991
31596	794.807
31597	805.358
31598	782.059
31599	798.324
31600	813.710
31601	794.368
31602	801.841
31603	826.019
31604	811.952
31605	798.324
31606	833.932
31607	815.469
31608	796.566
31609	838.328
31610	826.019
31611	792.609
31612	841.405
31613	826.459
31614	787.773
31615	829.976
31616	814.589
31617	781.179
31618	822.942
31619	814.150
31620	780.300
31621	815.908
31622	811.952
31623	797.884
31624	829.976
31625	840.087
31626	813.710
31627	794.807
31628	814.589
31629	815.469
31630	815.908
31631	843.603
31632	815.469
31633	791.290
31634	825.140
31635	811.512
31636	787.773
31637	828.217
31638	814.150
31639	780.740
31640	818.546
31641	808.875
31642	775.025
31643	817.667
31644	804.918
31645	775.025
31646	815.908
31647	818.985
31648	787.334
31649	815.908
31650	822.502
31651	804.918
31652	822.942
31653	838.328
31654	815.469
31655	808.875
31656	829.536
31657	815.469
31658	801.841
31659	840.087
31660	822.502
31661	794.807
31662	839.207
31663	829.096
31664	787.773
31665	829.976
31666	818.546
31667	773.706
31668	801.401
31669	783.817
31670	787.773
31671	826.019
31672	814.150
31673	787.773
31674	822.502
31675	806.677
31676	775.464
31677	824.700
31678	815.469
31679	787.773
31680	831.294
31681	819.865
31682	789.092
31683	833.492
31684	819.425
31685	790.851
31686	824.700
31687	797.884
31688	765.354
31689	808.875
31690	832.613
31691	815.469
31692	829.976
31693	831.294
31694	797.884
31695	794.807
31696	818.985
31697	801.841
31698	784.257
31699	818.985
31700	806.677
31701	780.740
31702	829.976
31703	822.502
31704	787.773
31705	833.932
31706	808.875
31707	769.750
31708	823.821
31709	820.304
31710	801.401
31711	847.560
31712	841.845
31713	808.435
31714	823.821
31715	829.976
31716	808.435
31717	815.908
31718	834.811
31719	815.469
31720	794.807
31721	829.536
31722	808.435
31723	790.851
31724	826.019
31725	804.918
31726	777.223
31727	822.502
31728	801.401
31729	749.528
31730	799.643
31731	794.368
31732	787.773
31733	855.473
31734	853.275
31735	813.271
31736	849.318
31737	829.976
31738	785.575
31739	819.425
31740	808.875
31741	776.783
31742	815.908
31743	813.271
31744	787.334
31745	815.908
31746	818.985
31747	787.334
31748	804.918
31749	822.502
31750	801.401
31751	801.841
31752	831.294
31753	815.469
31754	791.290
31755	833.492
31756	813.710
31757	787.773
31758	830.415
31759	814.589
31760	780.740
31761	829.976
31762	812.391
31763	775.025
31764	815.908
31765	808.435
31766	780.300
31767	822.063
31768	820.744
31769	790.851
31770	831.734
31771	825.580
31772	789.532
31773	817.667
31774	792.609
31775	766.672
31776	826.459
31777	815.908
31778	784.257
31779	837.009
31780	830.415
31781	803.160
31782	844.043
31783	841.845
31784	808.435
31785	833.492
31786	822.502
31787	787.334
31788	789.532
31789	801.401
31790	787.334
31791	801.841
31792	834.811
31793	815.469
31794	801.401
31795	842.285
31796	827.338
31797	790.411
31798	833.492
31799	810.633
31800	773.706
31801	814.150
31802	791.730
31803	759.199
31804	805.358
31805	810.193
31806	801.401
31807	844.043
31808	843.603
31809	808.435
31810	819.425
31811	821.623
31812	794.368
31813	789.092
31814	810.193
31815	794.368
31816	796.566
31817	834.811
31818	815.469
31819	787.773
31820	823.821
31821	807.116
31822	777.223
31823	819.425
31824	813.710
31825	792.609
31826	815.908
31827	831.294
31828	811.952
31829	794.807
31830	829.536
31831	820.744
31832	793.488
31833	836.130
31834	812.391
31835	774.146
31836	829.976
31837	834.372
31838	814.150
31839	844.043
31840	820.744
31841	780.300
31842	803.599
31843	815.469
31844	801.401
31845	787.773
31846	822.502
31847	810.193
31848	777.223
31849	826.459
31850	814.589
31851	776.344
31852	822.942
31853	809.754
31854	780.740
31855	829.536
31856	832.613
31857	803.160
31858	837.009
31859	817.227
31860	783.817
31861	815.908
31862	808.435
31863	778.542
31864	810.633
31865	815.469
31866	787.334
31867	815.908
31868	827.778
31869	808.435
31870	808.875
31871	836.570
31872	787.334
31873	810.193
31874	828.657
31875	801.401
31876	801.841
31877	797.445
31878	780.300
31879	766.672
31880	808.435
31881	794.807
31882	775.464
31883	831.294
31884	827.778
31885	808.875
31886	861.627
31887	849.318
31888	815.908
31889	851.077
31890	844.043
31891	800.522
31892	844.043
31893	831.294
31894	801.401
31895	837.009
31896	830.415
31897	794.368
31898	808.875
31899	808.435
31900	780.300
31901	794.807
31902	808.435
31903	787.334
31904	787.773
31905	799.643
31906	773.266
31907	755.243
31908	794.368
31909	787.334
31910	787.773
31911	864.265
31912	868.221
31913	830.855
31914	855.912
31915	827.778
31916	787.773
31917	826.459
31918	810.193
31919	775.025
31920	812.391
31921	806.677
31922	780.300
31923	815.908
31924	813.710
31925	787.334
31926	815.908
31927	814.589
31928	790.851
31929	801.841
31930	815.469
31931	792.609
31932	794.807
31933	815.469
31934	787.334
31935	791.290
31936	815.469
31937	801.401
31938	793.049
31939	834.372
31940	826.019
31941	803.599
31942	845.362
31943	829.536
31944	796.566
31945	840.526
31946	818.546
31947	783.377
31948	822.942
31949	803.160
31950	760.958
31951	794.807
31952	789.092
31953	762.716
31954	801.841
31955	818.985
31956	815.469
31957	844.043
31958	861.188
31959	829.536
31960	817.667
31961	843.603
31962	835.690
31963	815.908
31964	851.077
31965	822.502
31966	794.807
31967	831.294
31968	806.677
31969	801.841
31970	822.502
31971	807.556
31972	787.773
31973	822.942
31974	801.401
31975	773.706
31976	808.435
31977	787.334
31978	791.290
31979	810.193
31980	797.884
31981	787.773
31982	826.019
31983	810.193
31984	787.773
31985	830.415
31986	815.469
31987	787.773
31988	833.053
31989	815.469
31990	784.257
31991	829.976
31992	808.875
31993	773.266
31994	815.908
31995	802.280
31996	783.817
31997	829.976
31998	845.362
31999	822.502
32000	822.942
32001	822.502
32002	787.334
32003	787.773
32004	815.469
32005	815.469
32006	801.841
32007	843.603
32008	820.744
32009	787.773
32010	831.294
32011	814.150
32012	780.740
32013	826.019
32014	811.952
32015	777.223
32016	826.459
32017	817.227
32018	785.575
32019	817.667
32020	807.995
32021	769.750
32022	794.807
32023	803.599
32024	787.334
32025	819.425
32026	835.690
32027	815.469
32028	829.976
32029	849.318
32030	836.570
32031	823.821
32032	864.265
32033	833.053
32034	803.599
32035	833.053
32036	815.469
32037	791.290
32038	837.009
32039	817.667
32040	782.498
32041	824.700
32042	803.160
32043	769.750
32044	808.875
32045	801.401
32046	771.508
32047	801.841
32048	794.368
32049	771.508
32050	796.566
32051	808.435
32052	787.334
32053	794.807
32054	822.502
32055	812.391
32056	794.807
32057	829.536
32058	820.744
32059	794.807
32060	840.087
32061	825.580
32062	787.773
32063	834.372
32064	815.469
32065	780.740
32066	833.492
32067	815.908
32068	783.817
32069	829.976
32070	814.589
32071	778.542
32072	815.029
32073	797.884
32074	771.508
32075	805.358
32076	811.952
32077	766.233
32078	837.009
32079	844.043
32080	807.556
32081	846.681
32082	836.570
32083	806.677
32084	829.976
32085	836.570
32086	811.952
32087	815.908
32088	829.536
32089	815.469
32090	798.324
32091	829.536
32092	804.918
32093	773.706
32094	815.908
32095	800.962
32096	765.354
32097	808.435
32098	791.730
32099	760.958
32100	812.391
32101	801.841
32102	775.025
32103	822.942
32104	837.009
32105	822.502
32106	860.748
32107	864.265
32108	826.019
32109	833.492
32110	834.811
32111	808.435
32112	801.841
32113	815.469
32114	801.401
32115	780.740
32116	815.469
32117	787.334
32118	747.330
32119	787.773
32120	779.421
32121	750.847
32122	801.841
32123	789.092
32124	773.266
32125	844.043
32126	872.178
32127	866.463
32128	882.728
32129	861.188
32130	801.401
32131	798.324
32132	801.401
32133	773.266
32134	791.290
32135	808.435
32136	787.334
32137	794.807
32138	820.744
32139	801.401
32140	783.377
32141	815.469
32142	801.401
32143	787.773
32144	837.009
32145	827.338
32146	797.445
32147	843.603
32148	837.009
32149	800.962
32150	829.976
32151	796.566
32152	766.233
32153	814.150
32154	812.831
32155	773.706
32156	803.160
32157	808.435
32158	787.334
32159	815.908
32160	829.536
32161	787.334
32162	801.841
32163	843.603
32164	840.087
32165	842.285
32166	866.463
32167	836.570
32168	805.358
32169	840.966
32170	826.019
32171	791.290
32172	831.734
32173	818.985
32174	773.706
32175	815.908
32176	794.807
32177	757.001
32178	791.290
32179	771.508
32180	752.605
32181	821.623
32182	815.469
32183	777.223
32184	812.391
32185	791.290
32186	778.102
32187	847.560
32188	854.594
32189	815.908
32190	829.976
32191	803.160
32192	769.750
32193	815.908
32194	849.758
32195	833.053
32196	815.908
32197	809.314
32198	785.575
32199	773.706
32200	814.589
32201	810.193
32202	787.773
32203	838.768
32204	836.130
32205	788.213
32206	815.469
32207	745.571
32208	706.007
32209	798.324
32210	857.231
32211	873.497
32212	915.259
32213	903.390
32214	868.221
32215	889.762
32216	852.396
32217	801.401
32218	801.841
32219	794.368
32220	752.165
32221	727.987
32222	772.827
32223	773.266
32224	752.605
32225	764.474
32226	750.847
32227	745.571
32228	812.391
32229	808.875
32230	801.841
32231	872.178
32232	866.023
32233	835.251
32234	893.279
32235	880.530
32236	829.536
32237	838.768
32238	806.677
32239	780.740
32240	808.875
32241	824.261
32242	801.401
32243	791.290
32244	773.266
32245	731.064
32246	745.571
32247	857.671
32248	894.598
32249	851.077
32250	829.536
32251	786.455
32252	759.639
32253	816.787
32254	814.150
32255	794.368
32256	837.009
32257	821.183
32258	789.092
32259	844.043
32260	840.087
32261	794.368
32262	808.875
32263	784.257
32264	745.132
32265	759.639
32266	759.199
32267	716.997
32268	703.369
32269	743.373
32270	843.603
32271	956.582
32272	1042.305
32273	956.142
32274	844.043
32275	805.797
32276	753.924
32277	706.886
32278	759.639
32279	783.377
32280	777.223
32281	851.077
32282	850.637
32283	838.768
32284	886.245
32285	841.405
32286	778.981
32287	801.841
32288	775.025
32289	726.229
32290	791.290
32291	818.546
32292	818.985
32293	847.560
32294	853.275
32295	822.502
32296	805.358
32297	822.502
32298	801.401
32299	777.223
32300	815.469
32301	797.005
32302	766.672
32303	815.908
32304	808.875
32305	775.025
32306	815.908
32307	798.764
32308	759.199
32309	787.773
32310	776.783
32311	752.165
32312	773.706
32313	804.918
32314	787.334
32315	801.841
32316	854.154
32317	850.637
32318	844.043
32319	891.520
32320	885.806
32321	844.043
32322	886.245
32323	857.671
32324	807.116
32325	834.372
32326	813.271
32327	774.146
32328	807.116
32329	801.401
32330	766.233
32331	775.464
32332	782.059
32333	776.783
32334	805.358
32335	833.053
32336	801.401
32337	787.773
32338	808.435
32339	787.334
32340	738.538
32341	776.783
32342	766.233
32343	756.122
32344	816.787
32345	812.391
32346	829.976
32347	912.621
32348	888.443
32349	832.174
32350	865.144
32351	857.671
32352	836.570
32353	861.627
32354	847.120
32355	801.401
32356	821.183
32357	822.063
32358	783.817
32359	787.773
32360	787.334
32361	766.233
32362	745.571
32363	787.773
32364	780.300
32365	777.223
32366	833.053
32367	825.580
32368	789.532
32369	822.942
32370	798.324
32371	762.716
32372	801.841
32373	800.962
32374	773.266
32375	815.908
32376	809.314
32377	780.300
32378	805.358
32379	815.469
32380	822.502
32381	872.178
32382	896.356
32383	850.637
32384	829.976
32385	834.811
32386	797.884
32387	829.976
32388	787.334
32389	731.064
32390	780.740
32391	819.865
32392	822.502
32393	822.942
32394	836.570
32395	811.952
32396	793.049
32397	822.502
32398	794.807
32399	759.639
32400	805.797
32401	786.455
32402	747.330
32403	791.730
32404	791.290
32405	790.851
32406	851.077
32407	850.637
32408	804.039
32409	829.976
32410	828.657
32411	827.778
32412	872.178
32413	875.255
32414	829.536
32415	815.908
32416	818.985
32417	801.401
32418	829.976
32419	854.154
32420	815.469
32421	787.773
32422	801.401
32423	766.233
32424	735.021
32425	779.861
32426	773.266
32427	735.900
32428	777.223
32429	768.431
32430	763.156
32431	847.560
32432	857.231
32433	828.657
32434	856.352
32435	826.459
32436	771.508
32437	819.425
32438	857.671
32439	857.671
32440	886.245
32441	857.671
32442	808.435
32443	815.908
32444	811.952
32445	783.817
32446	791.290
32447	808.875
32448	773.266
32449	761.397
32450	793.488
32451	759.199
32452	759.639
32453	818.985
32454	811.512
32455	773.266
32456	831.294
32457	830.855
32458	789.532
32459	831.734
32460	823.821
32461	789.971
32462	847.560
32463	843.603
32464	794.368
32465	822.942
32466	786.015
32467	745.132
32468	766.672
32469	808.435
32470	843.603
32471	886.245
32472	896.356
32473	854.154
32474	815.908
32475	829.536
32476	815.469
32477	794.807
32478	831.294
32479	801.401
32480	759.639
32481	787.334
32482	774.146
32483	749.088
32484	804.478
32485	806.237
32486	780.740
32487	829.976
32488	812.391
32489	787.773
32490	837.009
32491	820.744
32492	787.773
32493	833.492
32494	821.183
32495	793.049
32496	844.043
32497	837.888
32498	789.092
32499	794.807
32500	767.991
32501	794.368
32502	886.245
32503	888.883
32504	801.401
32505	787.773
32506	801.401
32507	815.469
32508	844.043
32509	866.463
32510	833.053
32511	805.358
32512	857.671
32513	849.318
32514	793.488
32515	794.807
32516	742.054
32517	715.678
32518	773.706
32519	746.011
32520	731.064
32521	854.594
32522	913.940
32523	871.738
32524	844.043
32525	818.985
32526	783.817
32527	794.807
32528	808.435
32529	787.334
32530	775.464
32531	787.334
32532	780.300
32533	749.967
32534	797.884
32535	822.502
32536	819.425
32537	854.154
32538	815.469
32539	767.112
32540	833.492
32541	837.009
32542	801.401
32543	844.043
32544	831.734
32545	808.435
32546	844.043
32547	826.459
32548	794.368
32549	822.942
32550	815.029
32551	784.696
32552	791.290
32553	797.884
32554	776.783
32555	775.464
32556	808.435
32557	797.884
32558	794.807
32559	861.188
32560	869.980
32561	844.043
32562	861.627
32563	808.875
32564	780.740
32565	822.942
32566	807.556
32567	760.958
32568	773.706
32569	748.649
32570	702.930
32571	718.316
32572	769.750
32573	878.772
32574	984.717
32575	991.311
32576	896.356
32577	837.009
32578	840.087
32579	811.952
32580	787.773
32581	808.435
32582	787.334
32583	756.122
32584	800.962
32585	786.894
32586	756.561
32587	805.358
32588	787.773
32589	738.538
32590	800.082
32591	775.904
32592	726.229
32593	760.518
32594	737.658
32595	723.151
32596	822.502
32597	884.487
32598	869.980
32599	889.762
32600	866.463
32601	827.778
32602	851.077
32603	857.671
32604	840.087
32605	844.043
32606	857.671
32607	829.536
32608	808.875
32609	826.019
32610	787.334
32611	752.605
32612	792.609
32613	784.257
32614	742.054
32615	766.233
32616	765.793
32617	793.049
32618	886.245
32619	883.607
32620	861.188
32621	885.806
32622	826.459
32623	780.300
32624	805.358
32625	818.985
32626	794.368
32627	801.841
32628	811.952
32629	783.817
32630	760.078
32631	801.401
32632	794.368
32633	766.672
32634	796.126
32635	775.025
32636	736.779
32637	783.377
32638	791.290
32639	786.015
32640	844.043
32641	829.976
32642	796.566
32643	840.526
32644	835.690
32645	796.126
32646	819.425
32647	799.643
32648	759.199
32649	851.077
32650	941.196
32651	926.249
32652	886.245
32653	875.255
32654	836.570
32655	794.807
32656	787.334
32657	745.132
32658	731.504
32659	770.629
32660	786.894
32661	798.324
32662	864.265
32663	836.570
32664	787.773
32665	811.952
32666	745.132
32667	773.706
32668	797.005
32669	783.817
32670	833.492
32671	846.681
32672	815.469
32673	837.009
32674	818.985
32675	787.334
32676	794.807
32677	801.401
32678	782.059
32679	759.639
32680	809.314
32681	818.985
32682	776.344
32683	816.787
32684	817.667
32685	794.368
32686	833.492
32687	822.502
32688	787.334
32689	808.875
32690	818.985
32691	807.556
32692	815.908
32693	822.502
32694	794.368
32695	815.908
32696	829.536
32697	815.469
32698	815.908
32699	841.845
32700	822.502
32701	808.875
32702	845.801
32703	822.502
32704	749.088
32705	787.773
32706	763.156
32707	762.716
32708	865.144
32709	875.255
32710	831.294
32711	819.425
32712	801.401
32713	753.924
32714	759.639
32715	806.677
32716	811.952
32717	801.841
32718	836.570
32719	829.536
32720	816.787
32721	872.178
32722	854.594
32723	817.667
32724	847.560
32725	803.599
32726	756.561
32727	795.247
32728	812.831
32729	804.918
32730	840.526
32731	813.710
32732	766.233
32733	787.773
32734	794.368
32735	799.643
32736	819.425
32737	839.207
32738	787.334
32739	773.706
32740	808.435
32741	797.884
32742	775.464
32743	834.372
32744	836.130
32745	802.720
32746	842.285
32747	818.985
32748	780.740
32749	821.183
32750	811.952
32751	787.334
32752	822.942
32753	829.096
32754	808.435
32755	828.217
32756	822.502
32757	787.334
32758	791.290
32759	822.502
32760	801.401
32761	731.504
32762	750.407
32763	758.759
32764	815.908
32765	921.414
32766	882.728
32767	800.962
32768	844.483
32769	857.671
32770	841.845
32771	862.946
32772	846.241
32773	780.300
32774	761.397
32775	759.199
32776	731.064
32777	763.156
32778	826.019
32779	843.603
32780	844.043
32781	836.570
32782	778.542
32783	754.363
32784	828.217
32785	849.318
32786	815.908
32787	837.009
32788	809.314
32789	773.266
32790	822.942
32791	826.019
32792	799.643
32793	830.855
32794	847.120
32795	804.918
32796	829.976
32797	803.599
32798	773.266
32799	798.324
32800	790.851
32801	773.266
32802	787.773
32803	801.401
32804	787.334
32805	787.773
32806	818.985
32807	801.401
32808	780.740
32809	825.580
32810	813.710
32811	777.662
32812	823.821
32813	815.469
32814	776.783
32815	837.449
32816	818.985
32817	787.334
32818	837.009
32819	850.637
32820	822.502
32821	822.942
32822	814.150
32823	773.266
32824	738.538
32825	766.233
32826	808.435
32827	851.077
32828	911.742
32829	866.463
32830	685.785
32831	677.432
32832	767.991
32833	900.312
32834	1014.610
32835	975.925
32836	879.651
32837	875.695
32838	829.536
32839	786.894
32840	815.908
32841	799.643
32842	750.407
32843	759.639
32844	766.233
32845	702.930
32846	633.032
32847	588.632
32848	576.323
32849	675.234
32850	892.400
32851	1009.774
32852	986.036
32853	956.582
32854	888.883
32855	855.033
32856	907.346
32857	905.148
32858	840.966
32859	837.009
32860	815.469
32861	801.401
32862	829.976
32863	850.637
32864	822.502
32865	780.740
32866	804.918
32867	785.136
32868	749.967
32869	773.706
32870	712.161
32871	637.868
32872	647.100
32873	639.626
32874	745.132
32875	935.481
32876	1015.929
32877	942.075
32878	861.627
32879	850.637
32880	822.502
32881	791.290
32882	831.294
32883	814.589
32884	787.773
32885	828.217
32886	808.435
32887	766.233
32888	801.841
32889	787.334
32890	741.615
32891	773.706
32892	776.783
32893	769.750
32894	801.841
32895	822.502
32896	775.025
32897	801.841
32898	854.594
32899	875.255
32900	900.312
32901	870.859
32902	811.952
32903	780.740
32904	811.073
32905	796.566
32906	777.223
32907	822.942
32908	812.831
32909	791.290
32910	815.908
32911	795.686
32912	767.991
32913	797.445
32914	731.504
32915	702.930
32916	844.043
32917	857.231
32918	773.266
32919	822.942
32920	843.603
32921	825.140
32922	790.851
32923	856.792
32924	857.671
32925	826.459
32926	851.077
32927	822.942
32928	796.126
32929	844.043
32930	840.087
32931	813.710
32932	844.043
32933	854.154
32934	818.985
32935	829.976
32936	843.603
32937	822.502
32938	787.773
32939	810.633
32940	789.092
32941	760.078
32942	796.566
32943	782.498
32944	744.252
32945	794.807
32946	800.082
32947	787.334
32948	844.043
32949	839.647
32950	802.720
32951	815.908
32952	801.401
32953	780.300
32954	787.773
32955	814.150
32956	776.783
32957	759.639
32958	818.985
32959	815.908
32960	782.498
32961	823.821
32962	778.542
32963	604.897
32964	733.262
32965	906.907
32966	913.940
32967	847.560
32968	847.120
32969	857.671
32970	865.144
32971	873.497
32972	843.603
32973	844.043
32974	874.376
32975	843.603
32976	795.686
32977	803.599
32978	837.888
32979	801.841
32980	777.223
32981	780.300
32982	705.567
32983	727.987
32984	841.845
32985	871.738
32986	872.178
32987	843.603
32988	801.401
32989	787.773
32990	798.764
32991	787.334
32992	766.672
32993	803.160
32994	794.368
32995	762.276
32996	812.391
32997	799.643
32998	766.233
32999	820.304
33000	826.898
33001	812.391
33002	857.671
33003	829.976
33004	786.455
33005	822.942
33006	815.908
33007	782.938
33008	787.773
33009	799.643
33010	787.334
33011	787.773
33012	762.716
33013	793.488
33014	822.942
33015	872.178
33016	825.580
33017	787.773
33018	866.902
33019	861.627
33020	822.502
33021	853.714
33022	829.536
33023	794.368
33024	819.425
33025	828.657
33026	759.199
33027	808.875
33028	899.873
33029	878.772
33030	819.865
33031	822.502
33032	709.963
33033	752.605
33034	833.053
33035	796.126
33036	763.156
33037	776.344
33038	796.126
33039	787.773
33040	822.942
33041	807.995
33042	775.025
33043	808.875
33044	812.831
33045	794.368
33046	815.908
33047	815.029
33048	787.334
33049	808.875
33050	820.744
33051	808.435
33052	808.875
33053	842.285
33054	843.603
33055	816.348
33056	864.704
33057	822.942
33058	785.136
33059	831.734
33060	809.754
33061	766.233
33062	794.807
33063	794.368
33064	782.938
33065	808.875
33066	848.879
33067	829.536
33068	808.875
33069	820.744
33070	811.952
33071	791.290
33072	858.110
33073	846.241
33074	795.686
33075	833.492
33076	808.875
33077	769.750
33078	808.875
33079	804.039
33080	783.817
33081	819.425
33082	785.575
33083	787.334
33084	858.110
33085	864.704
33086	727.547
33087	745.571
33088	843.603
33089	821.183
33090	775.464
33091	837.009
33092	821.183
33093	767.552
33094	826.459
33095	869.540
33096	847.120
33097	858.110
33098	834.811
33099	801.401
33100	815.908
33101	776.783
33102	736.779
33103	819.425
33104	819.865
33105	794.368
33106	837.009
33107	815.469
33108	787.334
33109	808.875
33110	794.368
33111	771.508
33112	773.706
33113	801.401
33114	794.807
33115	787.773
33116	845.362
33117	843.603
33118	808.875
33119	847.560
33120	827.338
33121	792.609
33122	851.077
33123	848.879
33124	801.401
33125	819.425
33126	818.985
33127	801.401
33128	798.324
33129	807.116
33130	783.817
33131	773.706
33132	810.193
33133	787.334
33134	766.672
33135	864.704
33136	864.265
33137	807.116
33138	847.560
33139	800.082
33140	736.340
33141	805.358
33142	821.623
33143	811.952
33144	844.043
33145	847.120
33146	857.671
33147	844.483
33148	829.536
33149	762.716
33150	742.054
33151	775.025
33152	766.233
33153	742.054
33154	798.324
33155	794.807
33156	760.518
33157	822.942
33158	832.613
33159	808.435
33160	829.976
33161	811.952
33162	785.575
33163	808.875
33164	830.415
33165	815.469
33166	858.110
33167	899.873
33168	871.738
33169	794.807
33170	808.875
33171	787.773
33172	759.639
33173	801.841
33174	803.160
33175	787.334
33176	844.043
33177	847.120
33178	850.637
33179	861.627
33180	850.637
33181	801.401
33182	787.773
33183	797.884
33184	783.817
33185	763.156
33186	817.667
33187	832.174
33188	822.063
33189	886.245
33190	873.497
33191	792.609
33192	791.290
33193	759.639
33194	757.441
33195	787.773
33196	745.132
33197	755.682
33198	791.290
33199	826.019
33200	783.817
33201	761.397
33202	822.942
33203	805.797
33204	759.639
33205	829.536
33206	811.952
33207	787.773
33208	848.879
33209	862.946
33210	838.768
33211	879.211
33212	872.178
33213	813.710
33214	809.754
33215	789.092
33216	755.682
33217	787.773
33218	815.469
33219	815.469
33220	829.976
33221	851.956
33222	797.884
33223	753.924
33224	797.445
33225	784.696
33226	766.672
33227	841.405
33228	882.728
33229	855.033
33230	852.835
33231	808.435
33232	780.300
33233	844.043
33234	882.289
33235	822.502
33236	829.976
33237	843.603
33238	843.603
33239	805.358
33240	795.686
33241	745.132
33242	703.369
33243	734.581
33244	731.064
33245	733.262
33246	818.985
33247	790.851
33248	754.363
33249	808.875
33250	854.154
33251	829.536
33252	844.043
33253	899.873
33254	857.671
33255	801.841
33256	808.875
33257	787.334
33258	763.156
33259	817.227
33260	806.237
33261	770.189
33262	829.976
33263	827.778
33264	795.247
33265	900.312
33266	926.249
33267	899.873
33268	900.312
33269	818.106
33270	745.132
33271	731.504
33272	745.132
33273	742.054
33274	725.349
33275	787.334
33276	804.478
33277	804.478
33278	822.942
33279	795.686
33280	774.146
33281	833.492
33282	836.130
33283	811.952
33284	837.009
33285	852.396
33286	843.603
33287	833.492
33288	892.839
33289	878.772
33290	801.841
33291	808.435
33292	780.300
33293	773.706
33294	852.396
33295	759.639
33296	731.504
33297	854.594
33298	858.110
33299	745.132
33300	720.953
33301	725.789
33302	717.437
33303	808.875
33304	829.536
33305	775.464
33306	854.594
33307	850.637
33308	805.358
33309	855.912
33310	838.328
33311	844.043
33312	875.255
33313	899.873
33314	906.027
33315	944.273
33316	868.661
33317	801.401
33318	829.976
33319	752.165
33320	727.547
33321	742.054
33322	741.615
33323	786.455
33324	749.088
33325	759.639
33326	762.276
33327	770.189
33328	801.841
33329	767.991
33330	759.199
33331	800.962
33332	861.188
33333	857.671
33334	829.976
33335	827.778
33336	745.132
33337	798.324
33338	815.469
33339	774.146
33340	829.976
33341	801.401
33342	804.039
33343	872.178
33344	819.425
33345	776.783
33346	791.290
33347	808.435
33348	796.126
33349	858.110
33350	1044.503
33351	917.018
33352	754.363
33353	801.841
33354	826.898
33355	806.677
33356	742.054
33357	688.862
33358	702.930
33359	735.021
33360	777.662
33361	786.455
33362	815.908
33363	879.211
33364	844.043
33365	783.817
33366	791.290
33367	801.401
33368	843.603
33369	900.312
33370	878.772
33371	815.469
33372	779.861
33373	822.942
33374	814.150
33375	773.706
33376	812.391
33377	811.952
33378	780.300
33379	798.324
33380	818.985
33381	801.401
33382	801.841
33383	832.613
33384	818.985
33385	837.009
33386	884.047
33387	850.637
33388	815.908
33389	834.372
33390	806.237
33391	787.773
33392	831.734
33393	791.290
33394	738.098
33395	777.223
33396	782.059
33397	766.233
33398	794.807
33399	811.952
33400	787.334
33401	794.807
33402	837.449
33403	814.589
33404	824.700
33405	882.728
33406	837.009
33407	782.059
33408	805.358
33409	817.227
33410	787.334
33411	834.372
33412	790.851
33413	745.132
33414	787.773
33415	799.643
33416	780.300
33417	801.841
33418	828.657
33419	822.502
33420	808.875
33421	854.594
33422	818.985
33423	782.059
33424	875.695
33425	856.792
33426	785.575
33427	787.773
33428	801.401
33429	836.570
33430	801.841
33431	773.266
33432	743.813
33433	740.296
33434	821.183
33435	829.976
33436	794.368
33437	826.459
33438	801.401
33439	787.334
33440	844.043
33441	906.907
33442	871.738
33443	808.875
33444	801.401
33445	770.629
33446	745.132
33447	798.324
33448	795.247
33449	780.300
33450	824.700
33451	824.261
33452	808.435
33453	822.942
33454	848.879
33455	896.796
33456	900.312
33457	847.999
33458	752.165
33459	693.698
33460	756.122
33461	776.783
33462	773.266
33463	819.425
33464	808.435
33465	808.435
33466	844.043
33467	857.671
33468	829.536
33469	796.566
33470	833.053
33471	811.952
33472	790.851
33473	857.671
33474	835.251
33475	776.783
33476	808.875
33477	877.013
33478	833.053
33479	796.566
33480	801.401
33481	806.677
33482	787.773
33483	815.469
33484	787.334
33485	764.914
33486	875.695
33487	826.459
33488	759.639
33489	773.706
33490	760.958
33491	743.373
33492	773.706
33493	799.643
33494	787.334
33495	773.706
33496	808.435
33497	818.985
33498	797.445
33499	847.999
33500	838.328
33501	823.821
33502	893.279
33503	859.429
33504	792.609
33505	787.773
33506	796.126
33507	794.368
33508	798.324
33509	833.053
33510	821.623
33511	812.391
33512	868.661
33513	824.261
33514	801.841
33515	822.502
33516	808.435
33517	788.653
33518	838.768
33519	824.261
33520	790.851
33521	816.348
33522	804.918
33523	787.334
33524	803.599
33525	815.469
33526	808.435
33527	815.908
33528	841.845
33529	852.835
33530	840.087
33531	855.912
33532	810.633
33533	746.890
33534	787.773
33535	742.494
33536	716.118
33537	759.639
33538	770.629
33539	773.266
33540	808.875
33541	829.536
33542	813.710
33543	794.807
33544	832.174
33545	820.744
33546	805.358
33547	881.409
33548	865.144
33549	807.995
33550	844.043
33551	837.449
33552	804.918
33553	837.009
33554	826.019
33555	776.783
33556	794.807
33557	836.570
33558	829.536
33559	791.290
33560	813.710
33561	790.851
33562	759.639
33563	805.358
33564	792.609
33565	753.045
33566	808.875
33567	811.073
33568	833.053
33569	861.627
33570	827.778
33571	794.368
33572	808.875
33573	801.401
33574	776.783
33575	794.807
33576	815.469
33577	801.401
33578	796.566
33579	829.096
33580	815.908
33581	793.049
33582	851.077
33583	831.294
33584	798.324
33585	844.043
33586	829.976
33587	798.764
33588	829.976
33589	829.096
33590	794.368
33591	815.908
33592	822.502
33593	794.368
33594	794.807
33595	821.623
33596	829.536
33597	801.841
33598	836.570
33599	808.435
33600	787.773
33601	836.130
33602	797.445
33603	743.373
33604	780.740
33605	773.266
33606	759.199
33607	796.566
33608	809.754
33609	797.884
33610	822.942
33611	894.598
33612	892.839
33613	844.043
33614	830.415
33615	773.266
33616	752.605
33617	776.783
33618	787.334
33619	787.773
33620	822.502
33621	804.918
33622	773.706
33623	826.459
33624	823.821
33625	800.082
33626	865.144
33627	834.372
33628	776.783
33629	793.928
33630	798.324
33631	787.334
33632	808.875
33633	843.603
33634	833.053
33635	808.875
33636	840.087
33637	824.261
33638	791.730
33639	833.053
33640	814.150
33641	779.861
33642	822.942
33643	815.029
33644	801.401
33645	822.942
33646	818.985
33647	787.334
33648	787.773
33649	823.381
33650	821.623
33651	794.807
33652	830.855
33653	805.797
33654	763.156
33655	800.082
33656	788.213
33657	776.783
33658	822.942
33659	834.811
33660	818.985
33661	833.492
33662	836.570
33663	811.952
33664	801.841
33665	827.778
33666	811.952
33667	787.773
33668	841.405
33669	846.241
33670	836.130
33671	847.560
33672	815.469
33673	790.851
33674	826.459
33675	794.368
33676	752.165
33677	763.156
33678	780.300
33679	773.266
33680	773.706
33681	804.918
33682	801.401
33683	787.773
33684	829.976
33685	820.744
33686	792.169
33687	858.990
33688	851.077
33689	801.401
33690	829.976
33691	818.985
33692	787.334
33693	808.875
33694	818.985
33695	801.401
33696	794.807
33697	834.811
33698	835.690
33699	822.942
33700	877.453
33701	851.077
33702	778.981
33703	803.160
33704	779.861
33705	745.132
33706	794.807
33707	798.764
33708	780.300
33709	805.358
33710	833.053
33711	829.536
33712	815.908
33713	848.879
33714	840.526
33715	794.807
33716	843.603
33717	840.087
33718	815.908
33719	827.778
33720	794.368
33721	759.639
33722	801.401
33723	791.290
33724	772.827
33725	822.942
33726	808.875
33727	776.783
33728	815.908
33729	812.391
33730	783.817
33731	808.875
33732	822.502
33733	808.435
33734	801.841
33735	838.328
33736	836.570
33737	805.358
33738	843.603
33739	822.942
33740	797.445
33741	845.801
33742	829.976
33743	794.368
33744	829.976
33745	814.150
33746	785.575
33747	805.358
33748	822.502
33749	794.368
33750	787.773
33751	806.677
33752	815.469
33753	787.773
33754	823.381
33755	805.797
33756	773.706
33757	812.391
33758	793.488
33759	770.629
33760	815.908
33761	830.415
33762	815.469
33763	808.875
33764	829.976
33765	815.469
33766	801.841
33767	836.570
33768	815.469
33769	780.740
33770	838.768
33771	826.019
33772	792.609
33773	829.976
33774	817.227
33775	787.334
33776	815.908
33777	822.502
33778	797.884
33779	801.841
33780	823.821
33781	815.469
33782	794.807
33783	838.328
33784	831.294
33785	791.290
33786	808.875
33787	806.237
33788	801.841
33789	844.043
33790	826.898
33791	794.368
33792	815.908
33793	815.469
33794	801.401
33795	805.358
33796	830.415
33797	813.710
33798	794.807
33799	827.778
33800	810.193
33801	773.706
33802	814.150
33803	799.643
33804	769.750
33805	812.391
33806	809.314
33807	783.817
33808	801.841
33809	794.368
33810	787.334
33811	815.908
33812	852.396
33813	836.570
33814	803.599
33815	841.845
33816	828.217
33817	787.773
33818	833.492
33819	808.435
33820	787.773
33821	829.536
33822	811.952
33823	787.773
33824	830.415
33825	815.908
33826	784.696
33827	833.492
33828	824.261
33829	787.334
33830	808.875
33831	809.754
33832	794.368
33833	808.875
33834	822.502
33835	813.710
33836	803.599
33837	853.275
33838	831.734
33839	787.773
33840	837.009
33841	821.183
33842	782.938
33843	821.183
33844	813.710
33845	785.575
33846	801.841
33847	810.193
33848	787.334
33849	789.532
33850	822.502
33851	810.193
33852	776.344
33853	822.063
33854	808.435
33855	775.464
33856	831.734
33857	828.217
33858	769.750
33859	787.773
33860	808.435
33861	815.469
33862	837.009
33863	866.463
33864	840.087
33865	808.875
33866	841.845
33867	820.744
33868	781.179
33869	822.063
33870	808.875
33871	773.266
33872	815.908
33873	809.314
33874	780.300
33875	808.875
33876	801.401
33877	787.334
33878	791.290
33879	833.053
33880	820.304
33881	787.773
33882	829.976
33883	813.271
33884	788.213
33885	829.976
33886	819.865
33887	787.334
33888	812.391
33889	813.271
33890	787.334
33891	798.324
33892	822.502
33893	811.952
33894	787.773
33895	839.647
33896	828.217
33897	798.324
33898	844.043
33899	831.734
33900	801.401
33901	829.976
33902	831.294
33903	802.280
33904	801.841
33905	822.502
33906	801.401
33907	787.773
33908	833.053
33909	812.831
33910	770.189
33911	819.425
33912	812.391
33913	774.146
33914	801.841
33915	806.677
33916	799.643
33917	829.976
33918	850.637
33919	829.536
33920	799.203
33921	815.469
33922	787.334
33923	801.841
33924	815.469
33925	801.401
33926	787.773
33927	829.976
33928	811.952
33929	774.146
33930	822.942
33931	809.754
33932	778.542
33933	826.459
33934	818.985
33935	794.368
33936	815.908
33937	821.623
33938	794.368
33939	801.841
33940	836.570
33941	829.536
33942	802.280
33943	844.043
33944	822.942
33945	781.619
33946	808.435
33947	793.049
33948	773.266
33949	819.425
33950	822.502
33951	801.401
33952	815.908
33953	834.811
33954	818.985
33955	794.368
33956	835.690
33957	820.744
33958	787.773
33959	826.459
33960	813.271
33961	787.773
33962	815.908
33963	804.918
33964	779.421
33965	801.841
33966	815.469
33967	801.401
33968	787.773
33969	822.502
33970	822.502
33971	812.831
33972	861.188
33973	852.835
33974	804.478
33975	837.009
33976	811.952
33977	782.938
33978	803.599
33979	797.884
33980	752.165
33981	766.672
33982	787.334
33983	787.334
33984	805.358
33985	850.637
33986	843.603
33987	805.358
33988	847.560
33989	829.096
33990	789.532
33991	837.009
33992	827.778
33993	796.126
33994	829.976
33995	829.536
33996	787.334
33997	794.807
33998	818.985
33999	811.952
34000	801.841
34001	830.855
34002	807.116
34003	773.706
34004	824.261
34005	817.667
34006	779.421
34007	829.976
34008	823.821
34009	794.368
34010	815.908
34011	811.952
34012	787.334
34013	773.706
34014	788.213
34015	773.266
34016	773.706
34017	835.690
34018	836.130
34019	802.280
34020	844.043
34021	816.348
34022	784.257
34023	822.942
34024	812.391
34025	760.518
34026	829.976
34027	827.338
34028	799.643
34029	833.492
34030	826.019
34031	797.884
34032	808.875
34033	822.502
34034	804.918
34035	787.773
34036	832.174
34037	820.744
34038	801.841
34039	833.053
34040	821.623
34041	789.092
34042	833.492
34043	827.778
34044	794.368
34045	808.875
34046	804.918
34047	773.266
34048	787.773
34049	815.469
34050	808.435
34051	787.773
34052	837.888
34053	822.942
34054	792.169
34055	843.164
34056	840.966
34057	811.952
34058	830.855
34059	833.053
34060	801.401
34061	791.290
34062	821.183
34063	801.841
34064	766.672
34065	808.875
34066	793.928
34067	764.914
34068	819.425
34069	829.096
34070	811.952
34071	829.976
34072	816.348
34073	794.368
34074	801.841
34075	818.985
34076	801.401
34077	777.223
34078	817.227
34079	801.401
34080	770.189
34081	828.217
34082	827.338
34083	804.918
34084	844.043
34085	834.811
34086	808.435
34087	815.908
34088	829.976
34089	801.401
34090	787.773
34091	801.401
34092	794.368
34093	773.706
34094	829.976
34095	822.942
34096	790.851
34097	844.043
34098	827.338
34099	785.575
34100	808.875
34101	811.952
34102	797.884
34103	798.324
34104	843.603
34105	839.647
34106	810.633
34107	853.714
34108	838.768
34109	794.368
34110	830.855
34111	805.358
34112	769.750
34113	794.807
34114	789.092
34115	766.233
34116	787.773
34117	804.918
34118	794.368
34119	794.807
34120	861.188
34121	862.946
34122	837.009
34123	861.627
34124	835.690
34125	768.431
34126	820.304
34127	810.193
34128	775.025
34129	826.459
34130	808.435
34131	776.783
34132	801.841
34133	807.556
34134	787.334
34135	801.841
34136	820.744
34137	787.334
34138	787.773
34139	826.459
34140	822.502
34141	801.841
34142	845.801
34143	833.053
34144	792.169
34145	815.908
34146	808.435
34147	780.300
34148	798.324
34149	813.710
34150	797.884
34151	787.773
34152	822.502
34153	806.677
34154	773.706
34155	808.875
34156	797.884
34157	778.542
34158	833.492
34159	852.396
34160	836.570
34161	847.560
34162	857.231
34163	829.536
34164	808.875
34165	840.087
34166	818.985
34167	781.619
34168	823.381
34169	806.237
34170	776.783
34171	809.754
34172	805.358
34173	776.783
34174	805.358
34175	811.952
34176	787.334
34177	794.807
34178	822.502
34179	801.401
34180	787.773
34181	822.942
34182	812.391
34183	780.740
34184	824.700
34185	815.908
34186	787.334
34187	819.425
34188	817.667
34189	801.401
34190	815.908
34191	841.845
34192	829.536
34193	801.841
34194	837.888
34195	822.502
34196	787.773
34197	830.855
34198	820.304
34199	783.377
34200	820.304
34201	811.952
34202	783.817
34203	808.875
34204	815.469
34205	787.334
34206	794.807
34207	815.469
34208	801.401
34209	787.773
34210	833.932
34211	822.502
34212	790.851
34213	837.009
34214	826.019
34215	787.773
34216	824.700
34217	817.227
34218	790.851
34219	822.942
34220	836.570
34221	815.469
34222	815.908
34223	833.053
34224	813.710
34225	789.532
34226	828.657
34227	811.073
34228	766.672
34229	815.469
34230	794.368
34231	773.706
34232	814.589
34233	804.918
34234	777.223
34235	831.734
34236	832.174
34237	801.401
34238	833.492
34239	829.096
34240	797.884
34241	805.358
34242	813.710
34243	787.334
34244	787.773
34245	822.502
34246	814.589
34247	787.773
34248	829.976
34249	816.787
34250	786.455
34251	829.976
34252	826.019
34253	797.884
34254	815.908
34255	833.053
34256	815.469
34257	815.908
34258	841.845
34259	822.502
34260	787.773
34261	827.338
34262	811.512
34263	775.025
34264	826.459
34265	817.227
34266	783.817
34267	808.875
34268	815.469
34269	794.368
34270	787.773
34271	822.502
34272	808.875
34273	773.706
34274	822.502
34275	811.512
34276	787.773
34277	838.768
34278	830.415
34279	801.401
34280	826.459
34281	815.469
34282	799.643
34283	808.875
34284	820.744
34285	808.435
34286	787.773
34287	826.898
34288	812.391
34289	779.421
34290	829.976
34291	813.271
34292	781.179
34293	819.425
34294	815.469
34295	791.730
34296	808.875
34297	825.580
34298	801.401
34299	794.807
34300	831.294
34301	818.985
34302	787.773
34303	834.372
34304	820.744
34305	787.773
34306	833.492
34307	820.744
34308	787.334
34309	808.875
34310	818.985
34311	804.918
34312	780.740
34313	817.227
34314	808.875
34315	775.025
34316	823.821
34317	815.908
34318	783.817
34319	822.942
34320	827.778
34321	808.435
34322	819.425
34323	840.526
34324	822.502
34325	798.324
34326	834.811
34327	817.227
34328	779.421
34329	822.942
34330	817.227
34331	787.773
34332	840.526
34333	823.821
34334	790.851
34335	816.787
34336	815.469
34337	794.368
34338	801.841
34339	826.459
34340	810.193
34341	787.773
34342	828.217
34343	814.150
34344	781.179
34345	822.942
34346	808.875
34347	783.817
34348	808.875
34349	813.710
34350	787.334
34351	787.773
34352	815.469
34353	797.884
34354	762.716
34355	811.952
34356	801.401
34357	772.387
34358	819.425
34359	827.778
34360	815.469
34361	844.043
34362	857.671
34363	836.570
34364	808.875
34365	855.912
34366	847.120
34367	817.667
34368	862.506
34369	844.043
34370	801.401
34371	819.865
34372	811.952
34373	780.300
34374	795.247
34375	808.435
34376	794.368
34377	773.706
34378	816.787
34379	803.599
34380	766.672
34381	808.875
34382	801.401
34383	773.266
34384	801.841
34385	811.952
34386	794.368
34387	787.773
34388	822.502
34389	806.677
34390	780.740
34391	824.700
34392	807.995
34393	769.750
34394	815.908
34395	797.884
34396	776.783
34397	801.841
34398	829.096
34399	822.502
34400	829.976
34401	864.704
34402	839.647
34403	822.942
34404	808.435
34405	787.334
34406	752.605
34407	787.773
34408	831.294
34409	830.415
34410	811.952
34411	849.318
34412	845.801
34413	818.985
34414	791.290
34415	840.526
34416	833.053
34417	811.952
34418	844.043
34419	848.879
34420	836.570
34421	815.908
34422	845.362
34423	821.623
34424	778.542
34425	815.908
34426	803.160
34427	773.266
34428	789.532
34429	794.368
34430	780.300
34431	763.156
34432	797.884
34433	731.064
34434	773.706
34435	808.435
34436	804.918
34437	798.324
34438	854.594
34439	847.560
34440	824.261
34441	868.661
34442	840.526
34443	787.334
34444	805.358
34445	800.962
34446	780.300
34447	773.706
34448	810.193
34449	801.401
34450	777.223
34451	831.734
34452	827.338
34453	800.522
34454	844.043
34455	833.053
34456	805.797
34457	801.841
34458	794.368
34459	783.817
34460	791.290
34461	843.603
34462	840.966
34463	801.841
34464	838.768
34465	823.821
34466	787.334
34467	815.908
34468	834.811
34469	836.570
34470	844.043
34471	861.188
34472	825.140
34473	780.740
34474	814.150
34475	792.609
34476	759.639
34477	794.807
34478	782.059
34479	745.132
34480	759.639
34481	785.575
34482	773.266
34483	777.223
34484	842.285
34485	848.879
34486	819.425
34487	861.627
34488	836.130
34489	797.884
34490	822.942
34491	813.710
34492	787.334
34493	801.841
34494	822.502
34495	815.469
34496	787.773
34497	840.526
34498	842.285
34499	821.183
34500	872.178
34501	867.782
34502	834.811
34503	854.594
34504	837.888
34505	796.126
34506	787.773
34507	813.710
34508	794.368
34509	773.706
34510	815.469
34511	799.643
34512	764.035
34513	802.720
34514	791.290
34515	762.716
34516	798.324
34517	801.401
34518	769.750
34519	763.156
34520	799.643
34521	801.841
34522	780.740
34523	824.700
34524	796.126
34525	752.605
34526	815.908
34527	832.613
34528	815.469
34529	829.976
34530	809.314
34531	787.334
34532	822.942
34533	868.221
34534	857.671
34535	844.043
34536	889.322
34537	857.671
34538	851.077
34539	847.560
34540	829.536
34541	808.875
34542	833.053
34543	815.469
34544	777.662
34545	822.942
34546	801.841
34547	773.706
34548	801.841
34549	797.884
34550	766.233
34551	763.156
34552	787.334
34553	780.300
34554	753.924
34555	793.049
34556	773.706
34557	750.407
34558	815.908
34559	827.778
34560	811.952
34561	844.043
34562	850.637
34563	829.536
34564	817.667
34565	843.603
34566	829.536
34567	798.324
34568	834.372
34569	814.150
34570	788.653
34571	822.063
34572	804.918
34573	783.817
34574	801.841
34575	790.851
34576	759.199
34577	749.088
34578	809.314
34579	815.908
34580	781.619
34581	837.009
34582	842.724
34583	818.985
34584	833.492
34585	836.570
34586	815.469
34587	817.667
34588	842.285
34589	822.502
34590	787.773
34591	808.875
34592	787.773
34593	796.126
34594	889.762
34595	878.772
34596	811.952
34597	815.908
34598	827.778
34599	815.469
34600	815.908
34601	829.536
34602	811.952
34603	794.807
34604	833.053
34605	808.875
34606	755.682
34607	787.773
34608	769.750
34609	738.098
34610	749.088
34611	753.484
34612	766.233
34613	801.841
34614	866.023
34615	835.690
34616	787.773
34617	868.661
34618	905.588
34619	869.100
34620	856.352
34621	821.623
34622	783.817
34623	808.875
34624	818.106
34625	808.435
34626	801.841
34627	823.381
34628	804.918
34629	763.595
34630	807.116
34631	786.015
34632	747.769
34633	787.773
34634	764.914
34635	731.064
34636	759.639
34637	773.266
34638	758.759
34639	847.560
34640	877.893
34641	836.570
34642	837.009
34643	847.120
34644	838.328
34645	829.976
34646	882.289
34647	872.178
34648	829.976
34649	866.023
34650	833.932
34651	779.421
34652	787.773
34653	769.750
34654	732.823
34655	752.605
34656	812.831
34657	829.536
34658	837.009
34659	904.269
34660	872.617
34661	825.140
34662	837.009
34663	794.368
34664	752.165
34665	787.773
34666	787.334
34667	755.682
34668	787.773
34669	829.536
34670	847.120
34671	820.744
34672	844.043
34673	822.502
34674	787.334
34675	746.890
34676	773.706
34677	782.059
34678	780.300
34679	759.199
34680	798.324
34681	815.908
34682	799.203
34683	749.528
34684	794.807
34685	840.087
34686	843.603
34687	815.469
34688	822.942
34689	853.275
34690	832.174
34691	794.368
34692	773.706
34693	753.924
34694	742.054
34695	793.928
34696	923.172
34697	927.568
34698	857.671
34699	851.077
34700	863.825
34701	843.603
34702	819.425
34703	863.386
34704	833.053
34705	790.851
34706	829.536
34707	813.710
34708	780.300
34709	787.773
34710	799.643
34711	773.266
34712	742.054
34713	793.928
34714	776.783
34715	757.441
34716	787.773
34717	778.542
34718	748.649
34719	777.223
34720	822.502
34721	818.985
34722	798.324
34723	840.526
34724	822.942
34725	794.807
34726	826.459
34727	787.773
34728	760.958
34729	824.261
34730	864.704
34731	857.671
34732	858.110
34733	871.738
34734	840.087
34735	791.290
34736	815.908
34737	781.619
34738	745.132
34739	806.237
34740	787.334
34741	768.431
34742	815.908
34743	801.841
34744	753.045
34745	787.773
34746	794.368
34747	822.502
34748	886.245
34749	912.182
34750	864.704
34751	794.807
34752	797.884
34753	762.716
34754	729.745
34755	822.942
34756	903.390
34757	890.202
34758	875.695
34759	850.637
34760	822.502
34761	808.875
34762	840.526
34763	818.106
34764	781.179
34765	808.875
34766	783.377
34767	734.581
34768	763.156
34769	766.233
34770	766.233
34771	780.740
34772	813.271
34773	801.401
34774	780.740
34775	822.502
34776	813.271
34777	782.059
34778	819.425
34779	801.401
34780	766.233
34781	797.005
34782	787.334
34783	773.266
34784	794.807
34785	871.738
34786	878.332
34787	837.009
34788	872.178
34789	849.318
34790	805.797
34791	837.009
34792	809.314
34793	766.233
34794	798.324
34795	812.831
34796	794.368
34797	788.213
34798	782.938
34799	759.199
34800	759.639
34801	811.073
34802	820.304
34803	818.985
34804	884.487
34805	859.869
34806	804.918
34807	819.425
34808	801.401
34809	759.199
34810	791.290
34811	843.603
34812	861.188
34813	844.043
34814	856.792
34815	813.710
34816	764.035
34817	814.150
34818	804.039
34819	774.146
34820	808.875
34821	826.019
34822	829.536
34823	854.594
34824	833.053
34825	783.817
34826	735.021
34827	757.001
34828	767.991
34829	822.942
34830	914.380
34831	854.154
34832	765.354
34833	787.773
34834	788.213
34835	783.817
34836	819.425
34837	840.087
34838	801.401
34839	787.773
34840	831.294
34841	811.952
34842	752.605
34843	815.469
34844	843.603
34845	829.976
34846	855.473
34847	812.391
34848	762.276
34849	808.875
34850	808.875
34851	790.851
34852	829.976
34853	822.502
34854	804.918
34855	808.875
34856	840.526
34857	801.401
34858	731.504
34859	776.344
34860	773.706
34861	735.460
34862	794.807
34863	833.492
34864	840.087
34865	872.178
34866	871.738
34867	842.724
34868	822.942
34869	869.100
34870	847.560
34871	787.773
34872	831.294
34873	801.401
34874	766.672
34875	813.710
34876	818.106
34877	808.875
34878	833.053
34879	808.875
34880	777.223
34881	815.908
34882	795.686
34883	760.958
34884	794.807
34885	780.300
34886	757.441
34887	773.706
34888	813.710
34889	836.570
34890	852.835
34891	889.762
34892	825.140
34893	753.924
34894	780.740
34895	760.958
34896	731.064
34897	745.571
34898	759.199
34899	815.469
34900	854.594
34901	890.641
34902	888.004
34903	901.192
34904	956.582
34905	913.940
34906	843.603
34907	818.546
34908	808.435
34909	782.498
34910	738.538
34911	751.726
34912	720.074
34913	681.828
34914	762.276
34915	815.469
34916	822.502
34917	844.043
34918	842.724
34919	827.778
34920	808.875
34921	850.637
34922	838.768
34923	803.599
34924	837.009
34925	810.193
34926	775.025
34927	794.807
34928	808.435
34929	801.401
34930	789.532
34931	806.677
34932	781.179
34933	742.054
34934	801.841
34935	818.546
34936	815.469
34937	851.077
34938	836.570
34939	769.750
34940	745.571
34941	759.199
34942	815.469
34943	879.211
34944	944.273
34945	857.671
34946	844.043
34947	895.037
34948	857.671
34949	769.310
34950	784.257
34951	764.914
34952	766.233
34953	833.492
34954	843.603
34955	815.469
34956	787.773
34957	797.884
34958	780.300
34959	753.045
34960	800.082
34961	798.324
34962	780.300
34963	815.908
34964	822.502
34965	801.401
34966	801.841
34967	818.985
34968	797.445
34969	770.629
34970	815.908
34971	801.841
34972	762.716
34973	815.908
34974	852.396
34975	855.912
34976	844.043
34977	840.087
34978	787.334
34979	731.504
34980	761.837
34981	765.793
34982	777.662
34983	872.178
34984	873.497
34985	829.536
34986	801.841
34987	833.053
34988	821.623
34989	787.773
34990	814.589
34991	794.807
34992	779.861
34993	847.560
34994	861.188
34995	843.603
34996	847.560
34997	847.120
34998	822.502
34999	794.807
35000	827.338
35001	769.750
35002	732.823
35003	805.358
35004	882.289
35005	894.598
35006	872.178
35007	822.502
35008	783.817
35009	752.605
35010	794.368
35011	784.257
35012	750.407
35013	794.807
35014	769.750
35015	741.615
35016	780.740
35017	843.603
35018	857.231
35019	819.425
35020	829.976
35021	773.706
35022	731.064
35023	787.773
35024	813.710
35025	804.918
35026	822.942
35027	861.188
35028	852.396
35029	815.908
35030	831.294
35031	801.841
35032	766.233
35033	821.183
35034	833.932
35035	815.469
35036	805.358
35037	821.623
35038	801.401
35039	787.773
35040	824.700
35041	780.740
35042	741.615
35043	808.875
35044	848.879
35045	854.154
35046	849.318
35047	850.637
35048	787.334
35049	787.773
35050	818.985
35051	762.716
35052	722.712
35053	808.875
35054	873.936
35055	871.738
35056	907.346
35057	892.839
35058	833.053
35059	738.538
35060	720.514
35061	762.716
35062	815.908
35063	886.245
35064	835.690
35065	771.508
35066	745.571
35067	745.132
35068	773.266
35069	822.942
35070	850.637
35071	827.338
35072	805.358
35073	852.835
35074	780.740
35075	709.963
35076	787.773
35077	832.613
35078	840.087
35079	858.110
35080	864.704
35081	836.570
35082	801.841
35083	838.328
35084	813.271
35085	756.561
35086	808.875
35087	803.160
35088	787.334
35089	815.908
35090	826.019
35091	811.952
35092	787.773
35093	804.918
35094	819.425
35095	808.875
35096	848.879
35097	815.469
35098	772.387
35099	808.875
35100	801.401
35101	769.750
35102	773.706
35103	800.962
35104	808.875
35105	808.875
35106	859.429
35107	842.285
35108	717.437
35109	710.403
35110	844.483
35111	935.041
35112	935.481
35113	827.778
35114	769.750
35115	815.908
35116	881.849
35117	846.681
35118	780.740
35119	808.875
35120	792.609
35121	759.199
35122	773.706
35123	779.861
35124	769.750
35125	766.672
35126	813.710
35127	811.952
35128	766.672
35129	822.942
35130	819.425
35131	787.334
35132	829.976
35133	796.126
35134	783.817
35135	815.908
35136	861.188
35137	878.772
35138	844.043
35139	870.419
35140	844.043
35141	792.169
35142	822.942
35143	818.985
35144	702.930
35145	745.571
35146	843.603
35147	843.603
35148	801.841
35149	818.106
35150	787.334
35151	822.942
35152	849.318
35153	799.643
35154	709.963
35155	738.538
35156	778.102
35157	808.435
35158	900.312
35159	889.322
35160	829.536
35161	801.841
35162	820.304
35163	738.538
35164	720.514
35165	819.425
35166	833.053
35167	801.401
35168	815.908
35169	815.469
35170	829.536
35171	850.197
35172	887.564
35173	857.671
35174	794.807
35175	837.009
35176	842.285
35177	784.257
35178	759.639
35179	806.677
35180	935.041
35181	914.380
35182	861.188
35183	787.334
35184	833.492
35185	902.071
35186	608.414
35187	618.525
35188	770.189
35189	786.455
35190	745.132
35191	735.021
35192	766.233
35193	773.266
35194	742.054
35195	789.532
35196	815.469
35197	843.603
35198	909.105
35199	894.598
35200	871.738
35201	942.515
35202	906.907
35203	920.974
35204	913.940
35205	896.356
35206	855.912
35207	604.897
35208	719.635
35209	836.570
35210	752.165
35211	682.268
35212	674.795
35213	706.446
35214	720.953
35215	784.696
35216	801.401
35217	802.720
35218	858.110
35219	857.231
35220	836.570
35221	854.594
35222	863.825
35223	843.603
35224	822.942
35225	867.342
35226	822.502
35227	789.532
35228	837.009
35229	831.294
35230	811.512
35231	852.835
35232	837.449
35233	801.401
35234	801.841
35235	759.199
35236	776.783
35237	798.324
35238	850.637
35239	818.985
35240	782.498
35241	833.492
35242	837.009
35243	804.918
35244	816.348
35245	810.193
35246	811.952
35247	815.908
35248	818.985
35249	787.334
35250	734.581
35251	770.189
35252	752.165
35253	759.639
35254	842.285
35255	815.469
35256	764.474
35257	815.908
35258	833.053
35259	829.536
35260	844.043
35261	871.738
35262	857.671
35263	824.700
35264	824.700
35265	762.276
35266	729.306
35267	801.841
35268	822.502
35269	815.469
35270	854.594
35271	935.041
35272	910.423
35273	844.043
35274	801.401
35275	748.649
35276	759.199
35277	720.953
35278	759.639
35279	712.161
35280	759.199
35281	787.334
35282	1071.759
35283	931.525
35284	815.469
35285	727.547
35286	744.252
35287	742.054
35288	797.884
35289	815.908
35290	707.326
35291	701.171
35292	824.700
35293	832.613
35294	822.942
35295	831.294
35296	879.211
35297	977.683
35298	841.845
35299	749.088
35300	759.199
35301	725.789
35302	731.064
35303	722.272
35304	791.290
35305	801.841
35306	773.266
35307	801.401
35308	816.787
35309	883.607
35310	888.004
35311	885.806
35312	954.384
35313	844.483
35314	828.217
35315	780.300
35316	791.290
35317	808.435
35318	819.425
35319	822.502
35320	820.744
35321	769.750
35322	801.401
35323	817.667
35324	787.334
35325	825.140
35326	851.077
35327	840.526
35328	861.627
35329	878.332
35330	900.312
35331	804.918
35332	709.963
35333	736.779
35334	766.233
35335	906.907
35336	865.144
35337	929.766
35338	859.869
35339	738.098
35340	611.931
35341	632.153
35342	640.505
35343	732.823
35344	791.290
35345	850.637
35346	893.279
35347	808.875
35348	801.841
35349	783.377
35350	824.700
35351	847.120
35352	822.502
35353	763.156
35354	745.132
35355	746.890
35356	857.671
35357	910.863
35358	815.469
35359	829.536
35360	829.976
35361	869.540
35362	942.075
35363	854.594
35364	887.564
35365	896.356
35366	850.637
35367	763.156
35368	788.653
35369	798.324
35370	780.300
35371	815.469
35372	776.783
35373	800.522
35374	849.318
35375	963.176
35376	952.626
35377	872.178
35378	800.522
35379	674.795
35380	682.268
35381	766.233
35382	777.662
35383	695.896
35384	701.171
35385	694.577
35386	731.064
35387	783.817
35388	750.407
35389	845.801
35390	910.863
35391	825.580
35392	809.314
35393	773.706
35394	787.334
35395	905.148
35396	956.582
35397	1005.818
35398	987.354
35399	926.249
35400	748.649
35401	555.662
35402	625.559
35403	745.132
35404	822.502
35405	873.497
35406	851.077
35407	818.985
35408	830.855
35409	787.773
35410	768.431
35411	725.349
35412	815.469
35413	837.009
35414	1001.861
35415	1097.256
35416	889.322
35417	723.151
35418	657.650
35419	653.694
35420	688.862
35421	676.553
35422	713.480
35423	731.064
35424	787.773
35425	850.637
35426	851.077
35427	872.178
35428	888.004
35429	857.671
35430	872.178
35431	872.617
35432	847.120
35433	861.188
35434	858.110
35435	838.328
35436	857.671
35437	809.314
35438	827.338
35439	815.908
35440	987.794
35441	945.592
35442	794.368
35443	696.335
35444	724.470
35445	831.734
35446	788.213
35447	759.639
35448	738.098
35449	694.137
35450	749.528
35451	803.599
35452	804.918
35453	951.746
35454	924.930
35455	833.492
35456	731.064
35457	703.369
35458	757.880
35459	780.740
35460	762.716
35461	800.962
35462	808.875
35463	783.817
35464	843.603
35465	837.009
35466	847.120
35467	826.019
35468	854.594
35469	844.043
35470	907.346
35471	973.727
35472	847.120
35473	646.660
35474	646.660
35475	661.167
35476	735.460
35477	787.773
35478	797.005
35479	773.266
35480	822.942
35481	830.415
35482	872.178
35483	850.637
35484	868.221
35485	833.492
35486	857.671
35487	829.536
35488	844.043
35489	857.671
35490	787.773
35491	794.368
35492	857.671
35493	815.469
35494	831.734
35495	837.449
35496	787.334
35497	945.592
35498	848.879
35499	729.306
35500	717.437
35501	745.132
35502	749.088
35503	759.199
35504	738.098
35505	775.464
35506	787.334
35507	822.502
35508	822.063
35509	872.178
35510	855.033
35511	1058.571
35512	1024.281
35513	794.807
35514	718.755
35515	674.795
35516	675.234
35517	741.615
35518	742.054
35519	768.431
35520	815.908
35521	759.199
35522	738.538
35523	731.504
35524	790.851
35525	808.435
35526	854.154
35527	844.043
35528	880.530
35529	906.467
35530	865.144
35531	822.942
35532	833.053
35533	826.019
35534	847.120
35535	798.764
35536	818.106
35537	829.976
35538	844.043
35539	822.942
35540	872.617
35541	843.603
35542	803.599
35543	840.087
35544	811.952
35545	787.773
35546	799.643
35547	817.667
35548	812.831
35549	961.857
35550	992.630
35551	843.603
35552	731.064
35553	618.525
35554	669.520
35555	689.302
35556	724.031
35557	777.223
35558	812.391
35559	787.773
35560	815.469
35561	815.469
35562	917.457
35563	916.138
35564	878.772
35565	835.251
35566	727.987
35567	745.132
35568	754.363
35569	739.856
35570	743.813
35571	824.700
35572	822.502
35573	829.976
35574	871.738
35575	938.558
35576	849.318
35577	814.150
35578	821.183
35579	803.160
35580	842.724
35581	882.728
35582	884.926
35583	882.289
35584	791.290
35585	738.098
35586	699.413
35587	752.605
35588	754.363
35589	767.112
35590	784.696
35591	789.532
35592	769.750
35593	811.952
35594	821.183
35595	811.952
35596	834.811
35597	822.942
35598	842.724
35599	815.469
35600	847.560
35601	835.251
35602	840.526
35603	801.401
35604	845.801
35605	829.976
35606	834.811
35607	780.300
35608	818.985
35609	818.985
35610	837.449
35611	777.662
35612	821.623
35613	822.063
35614	834.372
35615	769.750
35616	796.126
35617	787.334
35618	833.053
35619	794.807
35620	822.502
35621	892.839
35622	896.356
35623	773.706
35624	767.112
35625	752.605
35626	780.300
35627	759.639
35628	761.397
35629	787.773
35630	790.851
35631	850.637
35632	806.677
35633	822.942
35634	787.334
35635	759.639
35636	829.536
35637	815.469
35638	822.942
35639	791.290
35640	824.700
35641	840.526
35642	846.681
35643	808.875
35644	840.526
35645	822.502
35646	836.130
35647	794.807
35648	821.623
35649	844.043
35650	843.603
35651	826.459
35652	852.396
35653	822.502
35654	830.415
35655	783.817
35656	847.560
35657	868.661
35658	780.300
35659	772.387
35660	777.223
35661	738.098
35662	757.880
35663	789.532
35664	809.314
35665	771.948
35666	815.908
35667	822.942
35668	818.546
35669	809.754
35670	861.627
35671	830.415
35672	780.300
35673	815.469
35674	801.401
35675	866.902
35676	889.322
35677	815.029
35678	786.455
35679	759.639
35680	759.199
35681	786.015
35682	801.401
35683	815.908
35684	821.623
35685	801.401
35686	822.502
35687	798.324
35688	837.888
35689	851.077
35690	841.845
35691	802.720
35692	818.106
35693	787.334
35694	770.189
35695	831.294
35696	833.053
35697	805.358
35698	815.469
35699	818.985
35700	777.223
35701	813.271
35702	808.875
35703	889.322
35704	870.859
35705	837.009
35706	808.435
35707	801.401
35708	759.199
35709	766.672
35710	769.750
35711	759.199
35712	765.793
35713	818.985
35714	821.623
35715	844.043
35716	857.671
35717	844.043
35718	833.053
35719	808.435
35720	775.464
35721	819.425
35722	818.985
35723	822.942
35724	839.647
35725	819.425
35726	855.033
35727	841.845
35728	787.773
35729	794.807
35730	753.045
35731	790.851
35732	844.043
35733	877.453
35734	787.773
35735	793.049
35736	794.807
35737	808.435
35738	850.637
35739	815.029
35740	808.875
35741	780.740
35742	783.377
35743	776.783
35744	787.773
35745	766.233
35746	738.538
35747	773.266
35748	805.358
35749	837.888
35750	815.908
35751	846.681
35752	826.019
35753	796.566
35754	826.898
35755	815.908
35756	834.372
35757	844.043
35758	857.671
35759	823.821
35760	849.318
35761	815.908
35762	809.754
35763	823.381
35764	815.908
35765	818.106
35766	801.841
35767	794.368
35768	829.976
35769	899.873
35770	878.772
35771	840.087
35772	740.296
35773	720.074
35774	717.437
35775	722.272
35776	745.132
35777	729.745
35778	780.740
35779	800.082
35780	801.401
35781	837.009
35782	815.469
35783	851.516
35784	831.734
35785	857.671
35786	840.087
35787	833.492
35788	855.912
35789	840.087
35790	852.396
35791	821.623
35792	829.976
35793	820.304
35794	779.421
35795	819.425
35796	868.221
35797	857.671
35798	837.009
35799	814.150
35800	794.807
35801	811.952
35802	755.682
35803	752.605
35804	792.169
35805	851.077
35806	833.492
35807	801.401
35808	738.538
35809	775.904
35810	766.233
35811	734.581
35812	773.706
35813	801.401
35814	826.459
35815	827.778
35816	838.768
35817	833.053
35818	829.976
35819	843.603
35820	826.019
35821	814.150
35822	835.251
35823	831.734
35824	833.053
35825	844.043
35826	829.976
35827	787.773
35828	829.976
35829	841.845
35830	886.245
35831	850.637
35832	838.768
35833	787.334
35834	801.841
35835	820.744
35836	810.193
35837	826.459
35838	814.150
35839	731.064
35840	760.958
35841	770.629
35842	815.469
35843	749.088
35844	761.397
35845	743.373
35846	759.639
35847	769.310
35848	766.672
35849	807.116
35850	791.730
35851	849.318
35852	842.285
35853	822.502
35854	866.902
35855	829.976
35856	866.023
35857	886.245
35858	884.047
35859	822.502
35860	794.807
35861	850.637
35862	815.469
35863	826.019
35864	766.233
35865	759.639
35866	769.750
35867	742.494
35868	792.609
35869	787.773
35870	811.952
35871	815.469
35872	851.077
35873	861.188
35874	812.391
35875	862.067
35876	833.492
35877	817.667
35878	759.639
35879	798.324
35880	789.092
35881	766.233
35882	811.952
35883	781.619
35884	817.227
35885	798.324
35886	829.536
35887	815.469
35888	801.841
35889	841.845
35890	798.764
35891	829.536
35892	822.942
35893	822.942
35894	773.706
35895	810.633
35896	791.290
35897	768.431
35898	806.677
35899	808.875
35900	814.589
35901	815.908
35902	812.391
35903	783.817
35904	847.560
35905	885.806
35906	861.627
35907	827.778
35908	834.372
35909	808.435
35910	787.773
35911	783.817
35912	762.716
35913	756.122
35914	776.783
35915	808.875
35916	815.469
35917	838.328
35918	791.290
35919	810.633
35920	815.908
35921	815.469
35922	815.908
35923	776.783
35924	813.710
35925	773.706
35926	811.952
35927	835.690
35928	812.391
35929	837.009
35930	783.817
35931	804.918
35932	794.807
35933	817.227
35934	822.942
35935	815.469
35936	805.358
35937	857.671
35938	830.415
35939	830.415
35940	822.942
35941	811.952
35942	836.570
35943	829.976
35944	848.879
35945	815.908
35946	794.368
35947	794.368
35948	752.165
35949	785.575
35950	794.807
35951	818.106
35952	844.043
35953	840.087
35954	847.560
35955	835.690
35956	815.469
35957	759.199
35958	782.938
35959	773.706
35960	794.368
35961	812.391
35962	808.435
35963	847.560
35964	829.536
35965	798.324
35966	821.183
35967	819.425
35968	820.744
35969	773.706
35970	824.261
35971	798.324
35972	815.908
35973	816.787
35974	815.469
35975	782.059
35976	829.976
35977	817.227
35978	801.841
35979	822.942
35980	822.942
35981	820.744
35982	829.976
35983	811.952
35984	773.266
35985	801.841
35986	822.502
35987	858.110
35988	826.459
35989	853.275
35990	797.884
35991	812.391
35992	804.918
35993	776.783
35994	806.677
35995	755.682
35996	789.532
35997	783.817
35998	762.716
35999	794.807
36000	807.556
36001	790.851
36002	815.908
36003	836.570
36004	822.502
36005	804.918
36006	843.603
36007	832.174
36008	808.875
36009	845.801
36010	826.459
36011	780.300
36012	810.193
36013	813.710
36014	789.092
36015	822.942
36016	830.415
36017	808.435
36018	805.358
36019	836.570
36020	818.985
36021	787.773
36022	822.942
36023	810.633
36024	776.783
36025	819.425
36026	821.623
36027	801.401
36028	801.841
36029	829.536
36030	814.150
36031	787.773
36032	833.932
36033	819.425
36034	782.938
36035	822.942
36036	820.744
36037	799.643
36038	803.599
36039	829.536
36040	801.401
36041	794.807
36042	831.294
36043	817.227
36044	780.740
36045	824.700
36046	801.401
36047	787.334
36048	844.043
36049	836.570
36050	801.401
36051	777.223
36052	826.898
36053	808.435
36054	763.595
36055	808.875
36056	813.271
36057	797.884
36058	815.908
36059	828.657
36060	808.435
36061	778.981
36062	818.985
36063	812.391
36064	774.146
36065	822.942
36066	843.164
36067	826.019
36068	815.908
36069	840.087
36070	815.029
36071	759.639
36072	801.401
36073	783.377
36074	761.397
36075	826.459
36076	826.459
36077	801.401
36078	829.976
36079	833.053
36080	813.710
36081	787.773
36082	837.009
36083	819.425
36084	781.619
36085	819.425
36086	841.845
36087	815.469
36088	801.841
36089	833.492
36090	817.227
36091	779.421
36092	822.942
36093	815.469
36094	787.334
36095	794.807
36096	826.019
36097	808.435
36098	770.189
36099	821.183
36100	813.710
36101	790.851
36102	815.908
36103	833.053
36104	803.160
36105	773.706
36106	819.425
36107	812.831
36108	787.334
36109	808.875
36110	822.502
36111	815.469
36112	787.773
36113	837.009
36114	833.053
36115	804.918
36116	837.009
36117	843.603
36118	822.502
36119	798.324
36120	835.690
36121	815.908
36122	779.861
36123	801.841
36124	810.193
36125	787.334
36126	773.706
36127	815.029
36128	789.092
36129	756.122
36130	805.358
36131	825.140
36132	815.469
36133	798.324
36134	836.130
36135	819.865
36136	783.817
36137	815.908
36138	822.502
36139	801.401
36140	766.672
36141	814.589
36142	818.985
36143	800.522
36144	845.801
36145	836.570
36146	815.469
36147	798.324
36148	835.251
36149	817.667
36150	782.059
36151	815.908
36152	818.985
36153	801.401
36154	777.223
36155	817.667
36156	810.193
36157	796.126
36158	844.043
36159	826.019
36160	794.368
36161	798.324
36162	837.009
36163	826.459
36164	792.609
36165	829.976
36166	818.985
36167	794.368
36168	787.773
36169	828.217
36170	814.150
36171	784.257
36172	815.908
36173	832.174
36174	766.672
36175	822.942
36176	813.710
36177	787.334
36178	794.807
36179	826.019
36180	808.875
36181	772.387
36182	815.908
36183	810.193
36184	794.368
36185	794.807
36186	843.164
36187	840.087
36188	815.908
36189	829.976
36190	831.294
36191	808.435
36192	770.189
36193	819.425
36194	817.227
36195	801.401
36196	808.875
36197	843.603
36198	822.502
36199	779.421
36200	808.875
36201	813.710
36202	801.401
36203	780.740
36204	824.700
36205	799.643
36206	773.706
36207	805.358
36208	840.087
36209	836.130
36210	794.807
36211	822.942
36212	808.875
36213	787.334
36214	794.807
36215	828.217
36216	817.667
36217	786.015
36218	822.942
36219	820.744
36220	801.401
36221	786.015
36222	824.261
36223	808.875
36224	770.629
36225	801.841
36226	813.710
36227	801.401
36228	787.773
36229	833.492
36230	819.425
36231	787.334
36232	808.875
36233	828.657
36234	815.469
36235	787.773
36236	833.492
36237	826.019
36238	808.435
36239	815.908
36240	841.845
36241	822.502
36242	787.773
36243	822.942
36244	818.106
36245	801.401
36246	787.773
36247	818.546
36248	812.391
36249	782.059
36250	829.976
36251	826.019
36252	808.435
36253	791.290
36254	829.976
36255	815.469
36256	789.092
36257	808.875
36258	810.193
36259	787.334
36260	780.740
36261	844.043
36262	831.294
36263	801.401
36264	819.425
36265	833.053
36266	822.502
36267	787.773
36268	823.821
36269	813.710
36270	797.884
36271	798.324
36272	837.009
36273	822.502
36274	780.740
36275	815.029
36276	780.300
36277	773.706
36278	822.502
36279	809.754
36280	776.783
36281	822.942
36282	822.502
36283	808.435
36284	791.290
36285	831.734
36286	818.106
36287	787.334
36288	815.908
36289	822.502
36290	804.918
36291	773.706
36292	822.063
36293	816.348
36294	801.401
36295	815.908
36296	831.294
36297	805.797
36298	766.233
36299	815.908
36300	812.831
36301	797.884
36302	794.807
36303	851.956
36304	840.087
36305	814.150
36306	844.043
36307	843.603
36308	815.469
36309	791.290
36310	828.657
36311	806.237
36312	769.750
36313	798.324
36314	812.391
36315	780.300
36316	759.639
36317	806.237
36318	800.082
36319	782.059
36320	829.976
36321	858.110
36322	841.845
36323	809.754
36324	851.077
36325	830.415
36326	794.368
36327	801.841
36328	815.469
36329	801.401
36330	767.991
36331	816.787
36332	804.918
36333	780.300
36334	794.807
36335	826.019
36336	814.150
36337	776.783
36338	819.425
36339	815.469
36340	801.401
36341	808.875
36342	829.536
36343	813.710
36344	775.464
36345	815.908
36346	818.985
36347	815.469
36348	815.908
36349	844.922
36350	828.217
36351	796.126
36352	837.009
36353	841.845
36354	815.469
36355	787.773
36356	822.942
36357	807.116
36358	775.025
36359	801.841
36360	810.193
36361	794.368
36362	759.639
36363	801.841
36364	793.928
36365	794.368
36366	829.976
36367	864.704
36368	843.603
36369	794.368
36370	826.459
36371	823.821
36372	811.952
36373	798.324
36374	833.053
36375	816.787
36376	784.696
36377	815.908
36378	820.744
36379	774.146
36380	815.908
36381	813.710
36382	794.368
36383	787.773
36384	820.304
36385	803.160
36386	770.189
36387	793.049
36388	813.710
36389	800.522
36390	770.189
36391	812.391
36392	801.401
36393	780.300
36394	780.740
36395	822.942
36396	815.908
36397	801.401
36398	851.077
36399	868.221
36400	843.603
36401	807.116
36402	833.932
36403	818.106
36404	805.358
36405	822.942
36406	857.671
36407	833.053
36408	785.136
36409	817.667
36410	808.435
36411	787.334
36412	764.914
36413	800.082
36414	775.025
36415	738.098
36416	766.672
36417	808.435
36418	813.710
36419	789.532
36420	844.043
36421	852.396
36422	843.603
36423	844.043
36424	875.695
36425	849.318
36426	806.677
36427	826.459
36428	830.415
36429	808.435
36430	773.706
36431	815.908
36432	798.764
36433	776.783
36434	791.290
36435	818.985
36436	808.435
36437	773.706
36438	815.908
36439	811.952
36440	787.334
36441	780.740
36442	811.073
36443	788.653
36444	764.474
36445	808.875
36446	822.502
36447	822.063
36448	815.908
36449	862.506
36450	842.285
36451	797.884
36452	820.304
36453	818.985
36454	801.401
36455	781.619
36456	824.700
36457	816.787
36458	783.817
36459	798.324
36460	815.469
36461	804.918
36462	773.706
36463	815.908
36464	815.469
36465	794.368
36466	798.324
36467	828.217
36468	816.787
36469	783.817
36470	829.976
36471	829.976
36472	815.469
36473	803.599
36474	840.966
36475	826.459
36476	794.368
36477	829.976
36478	841.845
36479	822.502
36480	791.290
36481	836.130
36482	811.952
36483	787.773
36484	826.459
36485	812.831
36486	787.334
36487	792.169
36488	818.985
36489	814.589
36490	775.464
36491	815.908
36492	815.469
36493	804.918
36494	787.773
36495	826.459
36496	807.556
36497	780.300
36498	789.532
36499	804.918
36500	783.817
36501	755.682
36502	808.875
36503	815.469
36504	805.797
36505	808.875
36506	844.043
36507	837.449
36508	824.261
36509	879.211
36510	891.081
36511	864.704
36512	810.633
36513	837.009
36514	813.271
36515	783.817
36516	787.773
36517	814.589
36518	799.203
36519	770.189
36520	803.599
36521	811.952
36522	801.401
36523	777.223
36524	821.183
36525	803.160
36526	776.783
36527	794.807
36528	820.744
36529	808.875
36530	766.672
36531	803.160
36532	801.401
36533	794.368
36534	775.464
36535	815.908
36536	807.116
36537	801.401
36538	818.985
36539	836.570
36540	811.952
36541	780.740
36542	829.976
36543	824.700
36544	813.710
36545	829.976
36546	875.255
36547	865.144
36548	822.502
36549	844.922
36550	829.536
36551	811.952
36552	791.290
36553	840.526
36554	827.778
36555	792.609
36556	808.875
36557	826.019
36558	807.116
36559	771.068
36560	808.875
36561	796.126
36562	773.266
36563	759.639
36564	801.401
36565	789.532
36566	766.233
36567	801.841
36568	822.502
36569	818.985
36570	787.773
36571	836.570
36572	825.140
36573	801.401
36574	815.908
36575	832.174
36576	815.469
36577	782.059
36578	815.908
36579	814.150
36580	793.928
36581	791.290
36582	832.613
36583	801.401
36584	795.247
36585	841.845
36586	829.976
36587	787.773
36588	817.667
36589	829.536
36590	822.502
36591	793.928
36592	829.976
36593	808.435
36594	780.300
36595	787.773
36596	815.469
36597	794.368
36598	764.474
36599	799.203
36600	806.677
36601	797.884
36602	766.672
36603	837.009
36604	847.560
36605	843.603
36606	844.043
36607	862.946
36608	831.734
36609	794.368
36610	826.459
36611	829.536
36612	815.469
36613	787.334
36614	823.821
36615	819.865
36616	799.643
36617	817.667
36618	839.647
36619	800.962
36620	752.165
36621	791.290
36622	804.918
36623	797.884
36624	780.740
36625	826.459
36626	822.502
36627	815.469
36628	844.043
36629	871.738
36630	840.526
36631	773.706
36632	789.532
36633	783.817
36634	780.300
36635	764.914
36636	817.667
36637	810.193
36638	787.334
36639	787.773
36640	814.150
36641	789.532
36642	748.649
36643	791.290
36644	808.435
36645	815.469
36646	801.401
36647	854.594
36648	847.120
36649	829.536
36650	822.942
36651	848.879
36652	829.976
36653	796.126
36654	822.942
36655	826.459
36656	811.952
36657	789.532
36658	837.009
36659	818.985
36660	787.334
36661	773.706
36662	804.918
36663	787.773
36664	750.407
36665	787.773
36666	797.884
36667	815.469
36668	824.700
36669	893.279
36670	880.530
36671	834.811
36672	822.942
36673	836.130
36674	811.512
36675	766.233
36676	794.807
36677	804.918
36678	793.928
36679	766.672
36680	815.469
36681	807.116
36682	776.783
36683	787.773
36684	821.183
36685	787.334
36686	787.773
36687	837.009
36688	829.536
36689	796.126
36690	831.734
36691	829.536
36692	811.952
36693	787.773
36694	830.415
36695	818.985
36696	792.609
36697	794.807
36698	818.985
36699	807.116
36700	775.025
36701	815.908
36702	826.019
36703	811.952
36704	787.773
36705	827.778
36706	818.985
36707	797.884
36708	794.807
36709	826.459
36710	821.183
36711	796.126
36712	829.096
36713	830.415
36714	811.952
36715	773.706
36716	791.730
36717	779.421
36718	766.233
36719	787.773
36720	841.405
36721	843.603
36722	829.536
36723	851.077
36724	862.946
36725	831.294
36726	779.861
36727	812.391
36728	798.764
36729	780.300
36730	787.773
36731	826.019
36732	818.106
36733	792.609
36734	833.492
36735	850.637
36736	834.811
36737	798.324
36738	832.613
36739	815.469
36740	787.334
36741	787.773
36742	804.918
36743	790.851
36744	756.561
36745	801.841
36746	801.401
36747	801.401
36748	787.773
36749	829.976
36750	801.401
36751	769.750
36752	777.223
36753	800.522
36754	795.686
36755	781.619
36756	844.043
36757	857.671
36758	850.637
36759	826.459
36760	859.869
36761	844.483
36762	810.193
36763	822.942
36764	833.053
36765	811.952
36766	765.354
36767	792.169
36768	781.179
36769	773.266
36770	763.156
36771	833.492
36772	858.550
36773	854.154
36774	865.144
36775	867.342
36776	829.536
36777	773.706
36778	801.841
36779	803.599
36780	801.401
36781	804.918
36782	861.627
36783	833.492
36784	787.334
36785	794.807
36786	811.952
36787	794.807
36788	752.605
36789	807.556
36790	793.928
36791	757.880
36792	798.324
36793	799.643
36794	794.368
36795	769.310
36796	815.908
36797	800.962
36798	780.300
36799	787.773
36800	828.217
36801	814.150
36802	769.750
36803	791.290
36804	801.401
36805	787.334
36806	759.639
36807	822.942
36808	848.879
36809	857.671
36810	872.178
36811	902.071
36812	861.188
36813	808.875
36814	808.875
36815	815.469
36816	810.193
36817	790.411
36818	844.043
36819	847.120
36820	815.469
36821	780.740
36822	815.908
36823	806.677
36824	785.575
36825	815.908
36826	834.811
36827	824.261
36828	788.213
36829	819.425
36830	818.985
36831	794.368
36832	766.672
36833	802.720
36834	791.290
36835	776.783
36836	798.324
36837	837.009
36838	826.019
36839	784.257
36840	812.391
36841	807.556
36842	787.334
36843	759.639
36844	802.720
36845	784.257
36846	759.199
36847	787.773
36848	821.623
36849	822.502
36850	795.247
36851	847.560
36852	866.463
36853	864.704
36854	844.043
36855	883.607
36856	859.429
36857	813.710
36858	794.807
36859	822.502
36860	807.116
36861	778.542
36862	815.908
36863	814.589
36864	794.368
36865	764.914
36866	815.908
36867	822.502
36868	808.435
36869	787.773
36870	815.029
36871	791.290
36872	761.397
36873	787.773
36874	818.985
36875	812.391
36876	782.059
36877	791.290
36878	812.391
36879	791.290
36880	773.266
36881	791.290
36882	837.009
36883	838.328
36884	829.536
36885	793.488
36886	822.942
36887	822.502
36888	811.512
36889	780.300
36890	801.841
36891	814.150
36892	794.368
36893	801.841
36894	847.560
36895	840.087
36896	826.019
36897	782.059
36898	791.290
36899	809.754
36900	814.589
36901	815.469
36902	817.227
36903	872.178
36904	895.916
36905	878.332
36906	840.087
36907	803.599
36908	815.908
36909	797.884
36910	773.266
36911	734.581
36912	749.088
36913	766.233
36914	753.924
36915	745.132
36916	731.504
36917	770.189
36918	811.952
36919	850.637
36920	878.772
36921	886.245
36922	903.829
36923	857.671
36924	815.469
36925	768.870
36926	798.324
36927	794.368
36928	780.740
36929	750.407
36930	762.716
36931	810.633
36932	812.831
36933	801.401
36934	766.233
36935	801.841
36936	825.140
36937	805.797
36938	787.334
36939	783.817
36940	829.976
36941	843.603
36942	834.372
36943	801.401
36944	798.324
36945	837.009
36946	827.338
36947	808.435
36948	775.025
36949	798.324
36950	837.449
36951	832.174
36952	801.401
36953	760.518
36954	801.841
36955	837.009
36956	847.560
36957	829.536
36958	815.908
36959	845.801
36960	855.912
36961	846.241
36962	790.851
36963	787.773
36964	801.841
36965	777.662
36966	731.064
36967	717.437
36968	773.706
36969	813.271
36970	818.546
36971	822.502
36972	836.130
36973	882.728
36974	861.188
36975	840.087
36976	798.764
36977	801.841
36978	820.304
36979	796.126
36980	780.300
36981	760.518
36982	805.358
36983	841.405
36984	832.174
36985	815.469
36986	796.566
36987	822.942
36988	819.425
36989	804.918
36990	769.750
36991	752.605
36992	775.464
36993	773.266
36994	742.054
36995	794.807
36996	826.019
36997	837.009
36998	822.502
36999	815.908
37000	851.077
37001	847.120
37002	828.217
37003	787.334
37004	789.092
37005	845.801
37006	864.704
37007	875.255
37008	838.328
37009	822.942
37010	829.976
37011	792.609
37012	770.189
37013	726.229
37014	773.706
37015	806.677
37016	796.566
37017	780.300
37018	759.639
37019	815.908
37020	828.217
37021	822.502
37022	801.841
37023	829.976
37024	852.396
37025	825.140
37026	801.401
37027	759.639
37028	773.706
37029	780.740
37030	773.706
37031	794.368
37032	798.324
37033	844.043
37034	857.671
37035	852.396
37036	829.976
37037	817.667
37038	838.768
37039	815.469
37040	797.005
37041	759.199
37042	787.773
37043	831.734
37044	813.271
37045	798.764
37046	773.706
37047	815.908
37048	840.087
37049	828.657
37050	813.710
37051	793.049
37052	822.942
37053	822.502
37054	812.391
37055	783.817
37056	763.156
37057	791.290
37058	794.368
37059	794.368
37060	766.233
37061	787.773
37062	886.245
37063	935.481
37064	896.356
37065	797.884
37066	787.773
37067	801.401
37068	802.280
37069	813.710
37070	822.942
37071	851.077
37072	843.603
37073	818.985
37074	782.059
37075	759.639
37076	787.773
37077	783.817
37078	768.870
37079	738.098
37080	717.437
37081	752.605
37082	780.300
37083	792.609
37084	792.609
37085	837.009
37086	894.158
37087	861.188
37088	843.603
37089	801.401
37090	815.908
37091	851.077
37092	838.328
37093	829.536
37094	790.851
37095	794.807
37096	822.942
37097	759.199
37098	766.672
37099	815.908
37100	811.073
37101	796.566
37102	769.750
37103	745.571
37104	773.706
37105	787.334
37106	801.401
37107	785.575
37108	851.077
37109	943.833
37110	940.317
37111	864.265
37112	787.334
37113	791.290
37114	787.334
37115	757.001
37116	771.508
37117	787.773
37118	822.942
37119	810.193
37120	801.841
37121	787.773
37122	798.324
37123	852.835
37124	868.221
37125	847.560
37126	811.952
37127	787.773
37128	801.841
37129	792.609
37130	783.817
37131	759.199
37132	787.773
37133	822.942
37134	771.508
37135	748.649
37136	731.064
37137	762.276
37138	829.976
37139	843.603
37140	827.778
37141	766.233
37142	787.773
37143	795.686
37144	799.643
37145	805.797
37146	804.918
37147	875.695
37148	948.669
37149	942.075
37150	896.356
37151	838.768
37152	854.594
37153	855.033
37154	829.536
37155	801.401
37156	759.639
37157	766.672
37158	759.199
37159	753.924
37160	738.098
37161	759.639
37162	789.092
37163	774.146
37164	766.233
37165	769.750
37166	833.492
37167	866.902
37168	837.888
37169	787.334
37170	735.021
37171	780.740
37172	821.623
37173	833.053
37174	822.502
37175	790.411
37176	817.667
37177	838.328
37178	834.372
37179	808.435
37180	808.875
37181	822.942
37182	778.542
37183	724.470
37184	692.379
37185	761.397
37186	928.447
37187	970.210
37188	906.907
37189	800.522
37190	787.773
37191	822.942
37192	818.985
37193	801.401
37194	738.098
37195	735.021
37196	780.300
37197	814.150
37198	822.942
37199	917.897
37200	899.873
37201	832.613
37202	771.508
37203	752.605
37204	787.773
37205	794.807
37206	798.764
37207	767.991
37208	794.807
37209	840.526
37210	825.580
37211	762.276
37212	808.875
37213	811.952
37214	787.334
37215	801.841
37216	835.251
37217	759.199
37218	773.706
37219	815.908
37220	801.401
37221	794.807
37222	801.401
37223	816.787
37224	875.695
37225	895.037
37226	850.197
37227	801.401
37228	739.856
37229	668.201
37230	610.173
37231	671.278
37232	843.603
37233	998.784
37234	1030.436
37235	963.616
37236	861.188
37237	815.469
37238	781.179
37239	794.807
37240	805.358
37241	787.334
37242	780.300
37243	709.963
37244	742.054
37245	810.633
37246	836.570
37247	829.536
37248	789.092
37249	787.773
37250	778.981
37251	760.958
37252	783.817
37253	790.851
37254	843.164
37255	877.453
37256	857.671
37257	833.053
37258	786.455
37259	815.908
37260	815.469
37261	801.401
37262	768.870
37263	829.976
37264	818.985
37265	797.884
37266	787.773
37267	820.304
37268	815.908
37269	787.334
37270	815.908
37271	818.985
37272	780.300
37273	773.706
37274	861.627
37275	878.772
37276	843.603
37277	815.908
37278	828.657
37279	793.049
37280	752.165
37281	796.566
37282	807.556
37283	785.575
37284	773.706
37285	821.183
37286	819.865
37287	799.643
37288	829.976
37289	815.469
37290	787.334
37291	777.223
37292	833.492
37293	829.976
37294	815.469
37295	829.976
37296	840.087
37297	826.019
37298	781.619
37299	808.875
37300	792.609
37301	773.266
37302	787.773
37303	801.401
37304	794.368
37305	808.875
37306	780.300
37307	751.286
37308	830.855
37309	931.964
37310	910.863
37311	843.603
37312	801.841
37313	822.942
37314	792.169
37315	720.514
37316	766.672
37317	801.401
37318	811.952
37319	808.875
37320	841.845
37321	815.029
37322	774.146
37323	805.358
37324	815.469
37325	808.435
37326	794.807
37327	833.932
37328	804.918
37329	745.132
37330	801.841
37331	839.207
37332	855.912
37333	844.043
37334	857.671
37335	820.304
37336	776.783
37337	806.677
37338	802.280
37339	794.368
37340	773.706
37341	801.401
37342	798.764
37343	783.817
37344	831.734
37345	826.019
37346	811.952
37347	808.435
37348	850.637
37349	838.328
37350	764.914
37351	814.150
37352	818.985
37353	801.401
37354	801.841
37355	799.643
37356	774.146
37357	790.411
37358	851.077
37359	843.603
37360	811.952
37361	815.908
37362	871.738
37363	866.463
37364	809.754
37365	831.734
37366	807.556
37367	780.300
37368	787.773
37369	808.435
37370	797.884
37371	759.639
37372	784.257
37373	776.783
37374	762.716
37375	787.773
37376	841.845
37377	838.328
37378	799.203
37379	822.502
37380	795.247
37381	752.165
37382	851.077
37383	889.322
37384	843.603
37385	773.706
37386	798.764
37387	794.807
37388	826.019
37389	872.178
37390	846.241
37391	801.401
37392	787.773
37393	832.613
37394	818.985
37395	783.817
37396	822.942
37397	814.589
37398	785.575
37399	794.807
37400	813.710
37401	819.865
37402	787.773
37403	816.348
37404	803.599
37405	766.672
37406	812.391
37407	806.677
37408	808.435
37409	829.976
37410	875.255
37411	841.845
37412	773.266
37413	801.841
37414	797.884
37415	787.334
37416	802.280
37417	820.744
37418	794.368
37419	759.639
37420	815.908
37421	815.029
37422	801.401
37423	808.875
37424	840.087
37425	830.415
37426	793.928
37427	872.178
37428	843.603
37429	787.334
37430	787.773
37431	811.952
37432	808.435
37433	777.223
37434	826.459
37435	824.261
37436	822.502
37437	847.560
37438	858.110
37439	826.019
37440	793.488
37441	826.459
37442	800.082
37443	759.199
37444	773.706
37445	789.092
37446	777.223
37447	752.605
37448	801.841
37449	799.643
37450	778.542
37451	808.875
37452	821.623
37453	813.710
37454	812.391
37455	857.671
37456	856.352
37457	824.261
37458	851.077
37459	840.087
37460	815.469
37461	805.358
37462	829.536
37463	809.314
37464	769.750
37465	808.875
37466	807.116
37467	815.469
37468	858.110
37469	885.806
37470	833.492
37471	752.605
37472	775.464
37473	759.639
37474	738.098
37475	773.706
37476	794.368
37477	783.817
37478	762.276
37479	822.502
37480	827.338
37481	797.884
37482	829.976
37483	840.087
37484	833.053
37485	815.908
37486	851.077
37487	831.734
37488	808.875
37489	858.110
37490	850.637
37491	822.502
37492	787.773
37493	796.126
37494	769.310
37495	738.098
37496	789.092
37497	811.952
37498	801.401
37499	815.908
37500	873.057
37501	861.627
37502	809.754
37503	835.251
37504	816.787
37505	761.397
37506	815.908
37507	815.469
37508	794.368
37509	791.290
37510	822.502
37511	815.029
37512	782.938
37513	829.976
37514	813.710
37515	794.368
37516	801.841
37517	818.985
37518	811.512
37519	782.938
37520	858.110
37521	824.700
37522	759.199
37523	759.639
37524	780.300
37525	778.542
37526	761.397
37527	826.459
37528	824.261
37529	801.401
37530	822.942
37531	840.087
37532	843.603
37533	837.009
37534	866.902
37535	828.217
37536	783.817
37537	800.082
37538	801.841
37539	785.575
37540	749.088
37541	788.653
37542	800.082
37543	788.213
37544	831.734
37545	837.449
37546	815.469
37547	822.942
37548	847.120
37549	833.053
37550	793.049
37551	833.492
37552	820.744
37553	805.797
37554	815.908
37555	836.570
37556	829.536
37557	812.391
37558	844.043
37559	847.560
37560	820.744
37561	794.807
37562	759.199
37563	731.064
37564	735.021
37565	797.005
37566	801.401
37567	766.233
37568	801.841
37569	814.589
37570	801.401
37571	815.908
37572	841.845
37573	829.536
37574	798.324
37575	840.526
37576	829.976
37577	808.435
37578	815.908
37579	829.536
37580	815.469
37581	794.807
37582	840.526
37583	829.976
37584	798.764
37585	829.976
37586	829.536
37587	831.734
37588	822.942
37589	829.536
37590	801.401
37591	766.672
37592	824.700
37593	813.710
37594	771.508
37595	805.358
37596	822.502
37597	808.435
37598	789.532
37599	824.261
37600	805.358
37601	772.387
37602	801.841
37603	794.368
37604	773.266
37605	787.773
37606	822.502
37607	794.368
37608	801.841
37609	841.845
37610	826.019
37611	790.851
37612	837.009
37613	822.502
37614	808.435
37615	854.594
37616	854.154
37617	822.502
37618	792.169
37619	880.970
37620	879.211
37621	801.401
37622	803.599
37623	779.861
37624	755.682
37625	738.538
37626	757.441
37627	757.441
37628	738.538
37629	800.082
37630	802.280
37631	782.059
37632	815.908
37633	835.690
37634	829.536
37635	801.841
37636	847.560
37637	837.009
37638	794.368
37639	838.768
37640	833.053
37641	811.952
37642	815.908
37643	840.087
37644	818.985
37645	787.773
37646	838.768
37647	822.063
37648	802.720
37649	847.560
37650	848.879
37651	815.469
37652	794.807
37653	831.294
37654	840.087
37655	813.271
37656	824.700
37657	779.861
37658	734.581
37659	759.639
37660	783.817
37661	782.938
37662	766.672
37663	829.096
37664	819.425
37665	796.126
37666	844.043
37667	831.294
37668	801.401
37669	801.841
37670	850.637
37671	854.154
37672	805.358
37673	837.009
37674	821.623
37675	797.884
37676	808.875
37677	815.469
37678	801.401
37679	774.146
37680	811.952
37681	792.169
37682	771.508
37683	826.459
37684	843.603
37685	815.469
37686	777.223
37687	816.348
37688	805.358
37689	775.025
37690	794.807
37691	800.522
37692	794.368
37693	787.773
37694	831.734
37695	815.908
37696	787.334
37697	820.744
37698	847.120
37699	836.570
37700	819.425
37701	845.801
37702	830.415
37703	805.358
37704	840.087
37705	823.381
37706	787.334
37707	794.807
37708	815.469
37709	780.300
37710	773.706
37711	815.469
37712	811.512
37713	784.257
37714	822.942
37715	817.227
37716	787.334
37717	815.908
37718	820.744
37719	801.401
37720	787.773
37721	830.415
37722	829.536
37723	794.368
37724	831.734
37725	825.140
37726	804.918
37727	844.043
37728	855.912
37729	805.797
37730	780.740
37731	823.821
37732	798.764
37733	757.441
37734	780.740
37735	794.368
37736	787.334
37737	766.672
37738	821.183
37739	812.391
37740	776.783
37741	815.908
37742	818.106
37743	797.884
37744	808.875
37745	836.570
37746	822.502
37747	794.807
37748	844.043
37749	831.734
37750	801.401
37751	833.492
37752	836.570
37753	824.261
37754	797.005
37755	833.492
37756	823.821
37757	789.092
37758	829.976
37759	820.744
37760	787.334
37761	787.773
37762	811.512
37763	794.368
37764	770.189
37765	826.459
37766	815.908
37767	787.334
37768	829.976
37769	872.178
37770	848.879
37771	800.962
37772	827.338
37773	812.391
37774	790.851
37775	815.908
37776	790.851
37777	787.334
37778	794.807
37779	840.526
37780	812.391
37781	761.837
37782	800.082
37783	804.918
37784	787.334
37785	794.807
37786	810.193
37787	814.150
37788	794.807
37789	837.009
37790	808.875
37791	783.817
37792	875.695
37793	910.423
37794	840.087
37795	773.706
37796	766.233
37797	757.441
37798	734.142
37799	791.290
37800	806.677
37801	787.334
37802	801.841
37803	818.985
37804	816.787
37805	790.851
37806	844.043
37807	830.855
37808	801.401
37809	822.942
37810	833.053
37811	822.502
37812	822.942
37813	857.671
37814	829.536
37815	805.358
37816	833.053
37817	812.391
37818	780.300
37819	815.908
37820	815.469
37821	796.126
37822	789.532
37823	826.019
37824	817.227
37825	784.257
37826	835.251
37827	835.690
37828	815.469
37829	805.358
37830	833.053
37831	815.469
37832	784.257
37833	856.352
37834	872.178
37835	811.952
37836	787.773
37837	762.716
37838	741.175
37839	731.504
37840	788.213
37841	790.851
37842	766.233
37843	815.908
37844	804.918
37845	787.334
37846	808.875
37847	836.570
37848	826.019
37849	798.764
37850	844.922
37851	827.778
37852	799.643
37853	829.976
37854	834.811
37855	819.865
37856	808.875
37857	852.835
37858	837.888
37859	797.445
37860	826.459
37861	818.985
37862	804.918
37863	815.029
37864	838.328
37865	815.469
37866	780.740
37867	829.976
37868	815.469
37869	787.334
37870	801.841
37871	815.469
37872	800.522
37873	787.773
37874	833.932
37875	812.831
37876	776.783
37877	815.908
37878	828.657
37879	787.334
37880	787.773
37881	854.154
37882	894.598
37883	816.787
37884	801.841
37885	766.233
37886	745.132
37887	763.156
37888	808.875
37889	794.368
37890	768.431
37891	821.183
37892	811.512
37893	790.851
37894	817.667
37895	826.019
37896	811.952
37897	801.841
37898	850.637
37899	855.033
37900	824.700
37901	844.043
37902	818.985
37903	795.247
37904	801.841
37905	815.469
37906	804.918
37907	778.102
37908	820.304
37909	808.875
37910	780.740
37911	819.425
37912	829.536
37913	815.469
37914	815.908
37915	838.328
37916	811.952
37917	787.773
37918	826.019
37919	808.435
37920	778.981
37921	822.942
37922	806.677
37923	783.817
37924	805.358
37925	818.985
37926	801.401
37927	787.773
37928	834.372
37929	829.976
37930	833.053
37931	900.312
37932	885.806
37933	822.502
37934	759.639
37935	784.257
37936	765.793
37937	734.581
37938	780.740
37939	787.334
37940	776.783
37941	787.773
37942	811.952
37943	815.469
37944	789.532
37945	829.976
37946	815.908
37947	787.334
37948	822.942
37949	836.570
37950	826.019
37951	815.908
37952	851.077
37953	831.294
37954	789.092
37955	831.734
37956	824.261
37957	801.401
37958	829.976
37959	843.603
37960	833.053
37961	818.106
37962	869.540
37963	837.009
37964	774.146
37965	794.807
37966	782.059
37967	759.199
37968	763.156
37969	794.368
37970	801.401
37971	781.179
37972	828.217
37973	809.314
37974	792.609
37975	829.976
37976	843.603
37977	826.019
37978	791.290
37979	833.053
37980	812.391
37981	769.310
37982	801.841
37983	801.401
37984	787.334
37985	787.773
37986	827.778
37987	819.425
37988	787.773
37989	845.801
37990	844.483
37991	813.710
37992	837.009
37993	841.845
37994	815.469
37995	808.875
37996	850.637
37997	815.469
37998	763.595
37999	794.807
38000	783.817
38001	771.508
38002	791.290
38003	815.469
38004	801.401
38005	780.740
38006	829.096
38007	818.106
38008	783.377
38009	819.425
38010	817.227
38011	799.643
38012	798.324
38013	831.294
38014	829.536
38015	832.613
38016	891.520
38017	843.603
38018	773.706
38019	808.875
38020	788.213
38021	759.199
38022	789.532
38023	797.884
38024	787.334
38025	801.841
38026	846.681
38027	828.217
38028	780.740
38029	808.875
38030	801.401
38031	787.334
38032	794.807
38033	828.657
38034	815.469
38035	792.169
38036	858.110
38037	852.835
38038	822.502
38039	829.976
38040	822.502
38041	799.643
38042	773.706
38043	812.391
38044	795.686
38045	767.112
38046	829.976
38047	829.536
38048	801.401
38049	801.841
38050	818.985
38051	801.401
38052	780.740
38053	830.855
38054	811.952
38055	787.334
38056	815.908
38057	818.106
38058	801.401
38059	794.807
38060	833.053
38061	821.183
38062	783.817
38063	829.976
38064	821.623
38065	799.643
38066	801.841
38067	829.536
38068	815.469
38069	793.049
38070	852.835
38071	836.570
38072	811.952
38073	833.492
38074	820.744
38075	787.334
38076	766.672
38077	806.677
38078	800.082
38079	759.199
38080	808.875
38081	793.488
38082	773.266
38083	801.841
38084	822.502
38085	811.952
38086	787.773
38087	831.734
38088	821.183
38089	787.334
38090	829.976
38091	818.985
38092	799.643
38093	794.807
38094	836.570
38095	818.985
38096	789.971
38097	849.318
38098	847.120
38099	811.952
38100	829.976
38101	833.053
38102	815.469
38103	780.740
38104	811.952
38105	800.962
38106	778.542
38107	822.942
38108	822.502
38109	801.401
38110	805.358
38111	828.657
38112	811.073
38113	773.266
38114	818.546
38115	813.710
38116	787.334
38117	808.875
38118	826.019
38119	817.227
38120	797.005
38121	836.130
38122	797.884
38123	787.773
38124	832.613
38125	829.976
38126	801.401
38127	829.976
38128	825.140
38129	808.435
38130	794.807
38131	824.261
38132	807.995
38133	775.025
38134	821.183
38135	808.435
38136	787.334
38137	808.875
38138	834.811
38139	820.744
38140	791.290
38141	835.251
38142	818.985
38143	787.334
38144	829.976
38145	829.536
38146	806.677
38147	794.807
38148	822.063
38149	803.160
38150	767.991
38151	815.908
38152	801.841
38153	771.508
38154	794.807
38155	810.193
38156	801.401
38157	787.773
38158	826.459
38159	809.754
38160	784.696
38161	829.976
38162	829.536
38163	811.952
38164	819.425
38165	843.603
38166	829.536
38167	799.203
38168	844.043
38169	827.338
38170	796.126
38171	826.459
38172	826.019
38173	801.401
38174	787.773
38175	825.580
38176	809.754
38177	776.344
38178	819.865
38179	811.073
38180	780.300
38181	801.841
38182	826.019
38183	815.469
38184	787.773
38185	829.976
38186	817.667
38187	787.334
38188	815.908
38189	818.985
38190	787.334
38191	775.464
38192	801.401
38193	801.401
38194	789.532
38195	830.415
38196	820.744
38197	810.193
38198	837.009
38199	848.879
38200	829.536
38201	794.807
38202	831.734
38203	815.908
38204	783.817
38205	815.908
38206	811.952
38207	783.817
38208	791.290
38209	822.502
38210	813.710
38211	781.619
38212	829.976
38213	812.831
38214	783.817
38215	808.875
38216	815.469
38217	801.401
38218	787.773
38219	834.811
38220	829.976
38221	801.401
38222	844.043
38223	829.976
38224	796.126
38225	829.976
38226	815.469
38227	790.851
38228	808.875
38229	815.469
38230	808.435
38231	780.740
38232	829.976
38233	817.667
38234	785.575
38235	826.459
38236	827.778
38237	808.435
38238	801.841
38239	831.294
38240	815.469
38241	782.059
38242	826.459
38243	811.952
38244	783.817
38245	812.391
38246	808.435
38247	783.817
38248	787.773
38249	815.469
38250	812.831
38251	787.773
38252	837.009
38253	827.778
38254	798.764
38255	822.942
38256	840.087
38257	822.502
38258	798.324
38259	834.372
38260	815.908
38261	776.783
38262	807.995
38263	808.435
38264	801.401
38265	808.875
38266	845.801
38267	826.019
38268	787.773
38269	826.459
38270	815.469
38271	783.817
38272	801.841
38273	822.502
38274	808.435
38275	787.773
38276	829.976
38277	812.391
38278	780.300
38279	817.227
38280	815.469
38281	794.368
38282	801.841
38283	828.657
38284	818.985
38285	787.773
38286	830.855
38287	815.908
38288	785.575
38289	815.908
38290	824.261
38291	806.677
38292	787.773
38293	829.976
38294	818.546
38295	784.257
38296	808.875
38297	801.401
38298	787.334
38299	815.908
38300	840.087
38301	833.932
38302	798.324
38303	830.855
38304	815.908
38305	779.421
38306	815.908
38307	811.073
